Data from .25_RamanShift_02.txt Node
Date: Wed Mar 21 15:12:07 IST 2018
User: aro
Spectrometer: QEPB0276
Trigger mode: 0
Integration Time (sec): 5.000000E0
Scans to average: 1
Electric dark correction enabled: true
Nonlinearity correction enabled: false
Boxcar width: 0
XAxis mode: Raman Shifts
Number of Pixels in Spectrum: 1044
>>>>>Begin Spectral Data<<<<<
160.701	-0.5
166.742	1.5
172.777	3.5
178.805	18.5
184.826	42.5
190.841	87.5
196.849	137.5
202.85	166.5
208.845	172.5
214.833	170.5
220.815	165.5
226.789	163.5
232.758	162.5
238.719	164.5
244.674	155.5
250.623	161.5
256.565	153.5
262.5	151.5
268.429	144.5
274.351	143.5
280.267	143.5
286.176	133.5
292.079	133.5
297.975	129.5
303.865	123.5
309.748	131.5
315.625	126.5
321.495	121.5
327.359	127.5
333.217	125.5
339.068	128.5
344.912	121.5
350.751	126.5
356.583	126.5
362.408	131.5
368.227	127.5
374.04	133.5
379.847	133.5
385.647	132.5
391.44	133.5
397.228	141.5
403.009	136.5
408.784	147.5
414.553	158.5
420.315	177.5
426.071	176.5
431.821	155.5
437.565	140.5
443.302	134.5
449.033	130.5
454.758	127.5
460.477	133.5
466.189	125.5
471.896	120.5
477.596	126.5
483.29	125.5
488.978	124.5
494.66	117.5
500.335	120.5
506.005	109.5
511.668	98.5
517.325	99.5
522.977	89.5
528.622	91.5
534.261	84.5
539.894	84.5
545.521	82.5
551.141	81.5
556.756	79.5
562.365	79.5
567.968	79.5
573.565	75.5
579.155	72.5
584.74	72.5
590.319	73.5
595.892	71.5
601.459	73.5
607.02	78.5
612.575	75.5
618.124	72.5
623.667	72.5
629.204	71.5
634.735	67.5
640.261	75.5
645.781	79.5
651.294	83.5
656.802	77.5
662.304	75.5
667.8	71.5
673.29	64.5
678.775	67.5
684.254	67.5
689.726	63.5
695.193	62.5
700.655	66.5
706.11	61.5
711.56	63.5
717.004	66.5
722.442	64.5
727.874	63.5
733.301	61.5
738.722	60.5
744.137	54.5
749.547	56.5
754.951	59.5
760.349	61.5
765.741	61.5
771.128	64.5
776.509	59.5
781.885	62.5
787.254	59.5
792.618	63.5
797.977	65.5
803.33	54.5
808.677	58.5
814.019	62.5
819.355	57.5
824.686	58.5
830.011	62.5
835.33	57.5
840.644	61.5
845.952	60.5
851.255	63.5
856.552	54.5
861.844	54.5
867.13	60.5
872.41	62.5
877.686	62.5
882.955	53.5
888.219	50.5
893.478	51.5
898.731	50.5
903.979	47.5
909.221	48.5
914.458	47.5
919.69	43.5
924.916	45.5
930.136	44.5
935.351	50.5
940.561	49.5
945.766	45.5
950.965	44.5
956.158	47.5
961.347	43.5
966.529	38.5
971.707	43.5
976.879	39.5
982.046	40.5
987.208	42.5
992.364	43.5
997.515	42.5
1002.66	44.5
1007.801	43.5
1012.936	41.5
1018.066	37.5
1023.19	42.5
1028.309	37.5
1033.423	42.5
1038.532	44.5
1043.636	46.5
1048.734	43.5
1053.827	44.5
1058.915	41.5
1063.998	38.5
1069.075	39.5
1074.147	40.5
1079.214	40.5
1084.276	40.5
1089.333	42.5
1094.385	46.5
1099.431	41.5
1104.472	40.5
1109.509	40.5
1114.54	35.5
1119.565	37.5
1124.586	40.5
1129.602	35.5
1134.613	37.5
1139.618	35.5
1144.619	38.5
1149.614	37.5
1154.604	37.5
1159.589	37.5
1164.57	34.5
1169.545	39.5
1174.515	38.5
1179.48	41.5
1184.44	39.5
1189.395	36.5
1194.345	38.5
1199.29	36.5
1204.23	34.5
1209.165	34.5
1214.095	35.5
1219.021	32.5
1223.941	33.5
1228.856	35.5
1233.766	36.5
1238.672	36.5
1243.572	39.5
1248.467	38.5
1253.358	36.5
1258.244	38.5
1263.124	34.5
1268	33.5
1272.871	36.5
1277.737	28.5
1282.599	35.5
1287.455	33.5
1292.306	36.5
1297.153	38.5
1301.995	35.5
1306.832	31.5
1311.664	33.5
1316.491	31.5
1321.314	32.5
1326.132	32.5
1330.945	31.5
1335.753	32.5
1340.556	29.5
1345.354	28.5
1350.148	34.5
1354.937	30.5
1359.722	28.5
1364.501	27.5
1369.276	27.5
1374.046	30.5
1378.811	30.5
1383.572	29.5
1388.327	26.5
1393.079	27.5
1397.825	23.5
1402.567	24.5
1407.304	24.5
1412.036	26.5
1416.764	26.5
1421.487	19.5
1426.205	26.5
1430.919	29.5
1435.628	28.5
1440.333	29.5
1445.032	31.5
1449.727	28.5
1454.418	26.5
1459.104	27.5
1463.785	29.5
1468.462	29.5
1473.134	33.5
1477.802	30.5
1482.465	26.5
1487.123	27.5
1491.777	28.5
1496.426	27.5
1501.071	25.5
1505.711	29.5
1510.347	29.5
1514.978	30.5
1519.604	28.5
1524.226	31.5
1528.844	28.5
1533.457	31.5
1538.065	29.5
1542.669	28.5
1547.269	24.5
1551.864	26.5
1556.454	29.5
1561.041	30.5
1565.622	32.5
1570.199	30.5
1574.772	35.5
1579.34	31.5
1583.904	27.5
1588.464	27.5
1593.019	25.5
1597.569	31.5
1602.115	33.5
1606.657	30.5
1611.195	33.5
1615.728	34.5
1620.256	29.5
1624.78	31.5
1629.3	34.5
1633.816	31.5
1638.327	32.5
1642.834	36.5
1647.336	35.5
1651.834	40.5
1656.328	36.5
1660.817	40.5
1665.302	38.5
1669.783	30.5
1674.259	34.5
1678.732	29.5
1683.199	27.5
1687.663	28.5
1692.122	29.5
1696.577	23.5
1701.028	27.5
1705.474	23.5
1709.917	26.5
1714.355	29.5
1718.788	25.5
1723.218	21.5
1727.643	20.5
1732.064	24.5
1736.481	21.5
1740.893	19.5
1745.301	22.5
1749.705	20.5
1754.105	18.5
1758.501	18.5
1762.893	16.5
1767.28	17.5
1771.663	17.5
1776.042	21.5
1780.417	28.5
1784.787	24.5
1789.154	18.5
1793.516	15.5
1797.874	14.5
1802.228	17.5
1806.578	13.5
1810.924	13.5
1815.266	10.5
1819.603	9.5
1823.937	14.5
1828.266	10.5
1832.591	13.5
1836.913	9.5
1841.23	13.5
1845.543	9.5
1849.852	9.5
1854.156	5.5
1858.457	11.5
1862.754	9.5
1867.047	13.5
1871.335	12.5
1875.62	13.5
1879.9	13.5
1884.177	13.5
1888.449	12.5
1892.718	14.5
1896.982	13.5
1901.243	16.5
1905.499	16.5
1909.752	14.5
1914	12.5
1918.245	13.5
1922.485	17.5
1926.722	12.5
1930.954	13.5
1935.183	14.5
1939.408	12.5
1943.628	9.5
1947.845	13.5
1952.058	10.5
1956.267	9.5
1960.472	10.5
1964.673	11.5
1968.87	13.5
1973.063	12.5
1977.252	12.5
1981.438	9.5
1985.619	10.5
1989.797	12.5
1993.971	11.5
1998.14	12.5
2002.306	11.5
2006.469	10.5
2010.627	11.5
2014.781	9.5
2018.932	13.5
2023.078	7.5
2027.221	10.5
2031.36	6.5
2035.495	5.5
2039.627	9.5
2043.754	6.5
2047.878	6.5
2051.998	3.5
2056.114	10.5
2060.226	6.5
2064.334	14.5
2068.439	11.5
2072.54	14.5
2076.637	11.5
2080.73	9.5
2084.82	6.5
2088.906	11.5
2092.988	8.5
2097.066	11.5
2101.14	10.5
2105.211	10.5
2109.278	14.5
2113.342	11.5
2117.401	13.5
2121.457	12.5
2125.509	10.5
2129.558	8.5
2133.602	10.5
2137.643	10.5
2141.681	12.5
2145.714	14.5
2149.744	13.5
2153.77	8.5
2157.793	11.5
2161.812	11.5
2165.827	7.5
2169.838	11.5
2173.846	10.5
2177.851	7.5
2181.851	9.5
2185.848	12.5
2189.841	10.5
2193.831	10.5
2197.817	10.5
2201.799	6.5
2205.778	4.5
2209.753	4.5
2213.725	5.5
2217.693	6.5
2221.657	8.5
2225.618	7.5
2229.575	6.5
2233.529	6.5
2237.479	7.5
2241.425	4.5
2245.368	4.5
2249.307	6.5
2253.243	2.5
2257.175	5.5
2261.104	4.5
2265.029	4.5
2268.95	4.5
2272.868	1.5
2276.783	7.5
2280.694	3.5
2284.601	6.5
2288.505	4.5
2292.405	3.5
2296.302	5.5
2300.195	5.5
2304.085	7.5
2307.971	5.5
2311.854	5.5
2315.734	5.5
2319.609	6.5
2323.482	6.5
2327.351	5.5
2331.216	7.5
2335.078	0.5
2338.937	6.5
2342.792	4.5
2346.643	4.5
2350.492	7.5
2354.336	4.5
2358.178	5.5
2362.015	8.5
2365.85	1.5
2369.681	6.5
2373.508	-1.5
2377.333	0.5
2381.153	2.5
2384.971	1.5
2388.785	3.5
2392.595	3.5
2396.402	7.5
2400.206	3.5
2404.007	0.5
2407.804	-0.5
2411.597	1.5
2415.388	2.5
2419.174	-0.5
2422.958	2.5
2426.738	2.5
2430.515	2.5
2434.289	2.5
2438.059	3.5
2441.825	6.5
2445.589	1.5
2449.349	1.5
2453.106	4.5
2456.859	1.5
2460.61	3.5
2464.356	3.5
2468.1	6.5
2471.84	4.5
2475.577	5.5
2479.311	5.5
2483.041	2.5
2486.768	5.5
2490.492	-0.5
2494.213	0.5
2497.93	-1.5
2501.644	1.5
2505.355	5.5
2509.062	6.5
2512.766	3.5
2516.467	6.5
2520.165	4.5
2523.859	0.5
2527.551	-2.5
2531.239	0.5
2534.923	2.5
2538.605	0.5
2542.283	-0.5
2545.958	0.5
2549.63	0.5
2553.299	1.5
2556.964	3.5
2560.626	-1.5
2564.285	-0.5
2567.941	-1.5
2571.594	-2.5
2575.243	-2.5
2578.89	2.5
2582.533	0.5
2586.173	-1.5
2589.809	1.5
2593.443	1.5
2597.073	3.5
2600.701	0.5
2604.325	-0.5
2607.946	3.5
2611.564	-0.5
2615.178	2.5
2618.79	-0.5
2622.398	2.5
2626.004	3.5
2629.606	4.5
2633.205	3.5
2636.801	3.5
2640.394	2.5
2643.983	2.5
2647.57	2.5
2651.153	-1.5
2654.734	-0.5
2658.311	2.5
2661.885	1.5
2665.456	3.5
2669.025	1.5
2672.589	5.5
2676.151	-2.5
2679.71	-5.5
2683.266	-2.5
2686.819	-3.5
2690.368	-0.5
2693.915	1.5
2697.458	-0.5
2700.999	2.5
2704.536	-1.5
2708.071	-2.5
2711.602	-3.5
2715.13	-1.5
2718.656	-1.5
2722.178	-0.5
2725.697	1.5
2729.214	0.5
2732.727	0.5
2736.237	2.5
2739.744	1.5
2743.249	-2.5
2746.75	0.5
2750.248	-0.5
2753.743	-0.5
2757.236	0.5
2760.725	-0.5
2764.211	2.5
2767.695	2.5
2771.175	3.5
2774.652	2.5
2778.127	1.5
2781.598	-1.5
2785.067	0.5
2788.532	-2.5
2791.995	-0.5
2795.455	4.5
2798.911	5.5
2802.365	6.5
2805.816	4.5
2809.264	4.5
2812.709	-0.5
2816.151	0.5
2819.59	-1.5
2823.026	-3.5
2826.46	-1.5
2829.89	-3.5
2833.318	6.5
2836.742	4.5
2840.164	1.5
2843.583	0.5
2846.999	-4.5
2850.412	-2.5
2853.822	1.5
2857.229	0.5
2860.634	3.5
2864.035	2.5
2867.434	3.5
2870.83	4.5
2874.223	11.5
2877.613	13.5
2881	15.5
2884.385	8.5
2887.766	3.5
2891.145	1.5
2894.521	7.5
2897.894	4.5
2901.264	6.5
2904.631	4.5
2907.996	7.5
2911.358	5.5
2914.717	3.5
2918.073	3.5
2921.426	3.5
2924.777	4.5
2928.124	3.5
2931.469	3.5
2934.811	8.5
2938.15	7.5
2941.487	7.5
2944.821	1.5
2948.152	1.5
2951.48	0.5
2954.805	3.5
2958.128	3.5
2961.447	2.5
2964.765	5.5
2968.079	6.5
2971.39	5.5
2974.699	3.5
2978.005	4.5
2981.308	5.5
2984.609	3.5
2987.907	3.5
2991.202	2.5
2994.494	7.5
2997.784	3.5
3001.07	7.5
3004.355	8.5
3007.636	6.5
3010.915	8.5
3014.191	9.5
3017.464	8.5
3020.734	8.5
3024.002	11.5
3027.267	9.5
3030.53	11.5
3033.789	12.5
3037.046	14.5
3040.301	14.5
3043.552	8.5
3046.801	14.5
3050.048	10.5
3053.291	9.5
3056.532	10.5
3059.771	13.5
3063.006	14.5
3066.239	18.5
3069.469	17.5
3072.697	19.5
3075.922	14.5
3079.144	15.5
3082.364	18.5
3085.581	23.5
3088.795	20.5
3092.007	19.5
3095.216	20.5
3098.423	23.5
3101.627	22.5
3104.828	20.5
3108.026	20.5
3111.222	18.5
3114.416	20.5
3117.607	20.5
3120.795	23.5
3123.98	22.5
3127.163	24.5
3130.344	27.5
3133.521	23.5
3136.696	27.5
3139.869	26.5
3143.039	23.5
3146.206	26.5
3149.371	25.5
3152.533	26.5
3155.693	33.5
3158.85	31.5
3162.005	29.5
3165.157	32.5
3168.306	32.5
3171.453	31.5
3174.597	31.5
3177.739	30.5
3180.878	26.5
3184.014	35.5
3187.149	32.5
3190.28	31.5
3193.409	36.5
3196.536	39.5
3199.659	36.5
3202.781	32.5
3205.9	36.5
3209.016	31.5
3212.13	34.5
3215.241	32.5
3218.35	32.5
3221.456	35.5
3224.56	31.5
3227.661	29.5
3230.76	36.5
3233.856	33.5
3236.95	30.5
3240.041	25.5
3243.13	31.5
3246.216	29.5
3249.3	26.5
3252.382	24.5
3255.46	31.5
3258.537	30.5
3261.611	29.5
3264.682	26.5
3267.751	23.5
3270.818	23.5
3273.882	18.5
3276.943	24.5
3280.002	24.5
3283.059	24.5
3286.113	24.5
3289.165	23.5
3292.214	28.5
3295.261	22.5
3298.306	23.5
3301.348	25.5
3304.387	24.5
3307.425	24.5
3310.459	25.5
3313.492	28.5
3316.521	27.5
3319.549	27.5
3322.574	23.5
3325.597	26.5
3328.617	20.5
3331.635	23.5
3334.65	25.5
3337.663	23.5
3340.674	23.5
3343.682	22.5
3346.688	26.5
3349.691	25.5
3352.692	19.5
3355.691	24.5
3358.687	23.5
3361.681	23.5
3364.673	22.5
3367.662	21.5
3370.649	16.5
3373.633	23.5
3376.615	19.5
3379.595	21.5
3382.572	19.5
3385.547	22.5
3388.52	21.5
3391.49	19.5
3394.458	19.5
3397.424	14.5
3400.387	13.5
3403.348	19.5
3406.307	13.5
3409.263	12.5
3412.217	15.5
3415.168	19.5
3418.118	18.5
3421.065	17.5
3424.009	14.5
3426.951	18.5
3429.891	15.5
3432.829	13.5
3435.764	13.5
3438.697	12.5
3441.628	10.5
3444.557	13.5
3447.483	15.5
3450.407	13.5
3453.328	15.5
3456.247	12.5
3459.164	13.5
3462.079	13.5
3464.991	10.5
3467.902	12.5
3470.809	14.5
3473.715	12.5
3476.618	12.5
3479.519	12.5
3482.418	14.5
3485.315	13.5
3488.209	9.5
3491.101	10.5
3493.99	14.5
3496.878	11.5
3499.763	12.5
3502.646	10.5
3505.527	11.5
3508.405	10.5
3511.281	10.5
3514.155	12.5
3517.027	3.5
3519.897	8.5
3522.764	4.5
3525.629	7.5
3528.492	6.5
3531.352	4.5
3534.211	9.5
3537.067	7.5
3539.921	6.5
3542.773	9.5
3545.622	3.5
3548.469	4.5
3551.315	4.5
3554.157	3.5
3556.998	-1.5
3559.837	3.5
3562.673	3.5
3565.507	3.5
3568.339	1.5
3571.169	6.5
3573.996	1.5
3576.822	2.5
3579.645	-0.5
3582.466	-0.5
3585.285	2.5
3588.101	4.5
3590.916	1.5
3593.728	5.5
3596.538	4.5
3599.346	3.5
3602.152	5.5
3604.956	3.5
3607.757	2.5
3610.556	3.5
3613.354	-0.5
3616.149	0.5
3618.942	3.5
3621.732	3.5
3624.521	0.5
3627.307	4.5
3630.092	0.5
3632.874	2.5
3635.654	-1.5
3638.432	0.5
3641.208	-2.5
3643.982	0.5
3646.753	-3.5
3649.523	-2.5
3652.29	2.5
3655.055	5.5
3657.818	1.5
3660.579	2.5
3663.338	-2.5
3666.095	-1.5
3668.849	-4.5
3671.602	-3.5
3674.352	-3.5
3677.101	-3.5
3679.847	-1.5
3682.591	-2.5
3685.333	-4.5
3688.073	-3.5
3690.811	-5.5
3693.547	-5.5
3696.281	-6.5
3699.013	-5.5
3701.742	-5.5
3704.47	-3.5
3707.195	-4.5
3709.919	-3.5
3712.64	-4.5
3715.359	-2.5
3718.076	-0.5
3720.792	-5.5
3723.505	-3.5
3726.216	-2.5
3728.925	-5.5
3731.632	-0.5
3734.336	-3.5
3737.039	-4.5
3739.74	-3.5
3742.439	-1.5
3745.136	-3.5
3747.83	-2.5
3750.523	-6.5
3753.213	0.5
3755.902	-7.5
3758.589	-3.5
3761.273	-7.5
3763.956	-5.5
3766.636	-6.5
3769.315	-2.5
3771.991	-3.5
3774.665	-2.5
3777.338	-5.5
3780.008	-7.5
3782.677	-9.5
3785.343	-5.5
3788.007	-7.5
3790.67	-6.5
3793.33	-4.5
3795.989	-6.5
3798.645	-5.5
3801.299	-3.5
3803.952	-4.5
3806.602	-3.5
3809.251	-4.5
3811.897	-4.5
3814.542	-3.5
3817.184	-4.5
3819.825	-1.5
3822.463	-2.5
3825.1	-0.5
3827.735	-5.5
3830.367	-5.5
3832.998	-5.5
3835.627	-7.5
3838.253	-2.5
3840.878	-4.5
3843.501	-3.5
3846.122	-2.5
3848.741	-2.5
3851.358	-5.5
3853.973	-2.5
3856.586	-4.5
3859.197	-5.5
3861.806	-1.5
3864.414	-4.5
3867.019	-9.5
3869.622	-2.5
3872.224	-2.5
3874.823	-6.5
3877.421	-0.5
3880.016	0.5
3882.61	-0.5
3885.202	-2.5
3887.792	-3.5
3890.38	-9.5
3892.966	-8.5
3895.55	-4.5
3898.132	-6.5
3900.713	-1.5
3903.291	-6.5
3905.868	-6.5
3908.442	-4.5
3911.015	-6.5
3913.586	-7.5
3916.155	-8.5
3918.722	-2.5
3921.287	-6.5
3923.85	-5.5
3926.411	-5.5
3928.971	-2.5
3931.528	-4.5
3934.084	-2.5
3936.638	-4.5
3939.19	-5.5
3941.74	-5.5
3944.288	-2.5
3946.834	-7.5
3949.378	-0.5
3951.921	-2.5
3954.462	-3.5
3957	-0.5
3959.537	-3.5
3962.072	-6.5
3964.606	-4.5
3967.137	-2.5
3969.667	-4.5
3972.194	-8.5
3974.72	-0.5
3977.244	-3.5
3979.766	-3.5
3982.286	-4.5
3984.805	-7.5
3987.321	-5.5
3989.836	-8.5
3992.349	-8.5
3994.86	-9.5
3997.369	-6.5
3999.877	-8.5
4002.382	-4.5
4004.886	-8.5
4007.388	-3.5
4009.888	-3.5
4012.386	-7.5
4014.883	-5.5
4017.377	-6.5
4019.87	-4.5
4022.361	0.5
4024.85	-5.5
4027.338	-1.5
4029.823	-2.5
4032.307	-3.5
4034.789	-4.5
4037.269	-3.5
4039.747	-4.5
4042.224	-7.5
4044.699	-0.5
4047.172	-3.5
4049.643	-5.5
4052.112	-3.5
4054.58	-4.5
4057.046	-4.5
4059.51	-3.5
4061.972	-7.5
4064.432	-7.5
4066.891	-6.5
4069.348	-8.5
4071.803	-8.5
4074.256	-6.5
4076.708	-3.5
4079.158	-5.5
4081.606	-4.5
4084.052	-2.5
4086.497	-6.5
4088.939	-6.5
4091.38	-5.5
4093.819	-5.5
4096.257	-5.5
4098.693	-7.5
4101.127	-6.5
4103.559	-7.5
4105.989	1.5
4108.418	0.5
4110.845	-2.5
4113.27	-0.5
4115.694	-1.5
4118.115	-0.5
4120.535	-3.5
4122.954	-4.5
4125.37	-5.5
4127.785	-8.5
4130.198	-6.5
4132.609	-4.5
4135.019	-7.5
4137.427	-8.5
4139.833	-4.5
4142.237	-2.5
