Data from 100CFU1_D_RamanShift_1.txt Node
Date: Thu Feb 02 12:01:53 IST 2017
User: aro
Spectrometer: QEPB0276
Trigger mode: 0
Integration Time (sec): 5.000000E0
Scans to average: 1
Electric dark correction enabled: true
Nonlinearity correction enabled: false
Boxcar width: 0
XAxis mode: Raman Shifts
Number of Pixels in Spectrum: 1044
>>>>>Begin Spectral Data<<<<<
160.701	-4.5
166.742	4.5
172.777	20.5
178.805	85.5
184.826	209.5
190.841	406.5
196.849	636.5
202.85	797.5
208.845	830.5
214.833	834.5
220.815	808.5
226.789	799.5
232.758	789.5
238.719	771.5
244.674	763.5
250.623	750.5
256.565	723.5
262.5	698.5
268.429	695.5
274.351	685.5
280.267	675.5
286.176	659.5
292.079	654.5
297.975	634.5
303.865	632.5
309.748	638.5
315.625	624.5
321.495	629.5
327.359	630.5
333.217	637.5
339.068	636.5
344.912	639.5
350.751	651.5
356.583	662.5
362.408	656.5
368.227	648.5
374.04	633.5
379.847	637.5
385.647	624.5
391.44	635.5
397.228	647.5
403.009	639.5
408.784	656.5
414.553	664.5
420.315	657.5
426.071	658.5
431.821	665.5
437.565	662.5
443.302	657.5
449.033	659.5
454.758	649.5
460.477	643.5
466.189	638.5
471.896	635.5
477.596	622.5
483.29	626.5
488.978	612.5
494.66	599.5
500.335	593.5
506.005	571.5
511.668	549.5
517.325	516.5
522.977	511.5
528.622	493.5
534.261	469.5
539.894	480.5
545.521	464.5
551.141	450.5
556.756	449.5
562.365	442.5
567.968	445.5
573.565	437.5
579.155	429.5
584.74	430.5
590.319	431.5
595.892	426.5
601.459	432.5
607.02	417.5
612.575	414.5
618.124	424.5
623.667	404.5
629.204	405.5
634.735	392.5
640.261	393.5
645.781	399.5
651.294	400.5
656.802	381.5
662.304	386.5
667.8	384.5
673.29	381.5
678.775	380.5
684.254	370.5
689.726	368.5
695.193	369.5
700.655	364.5
706.11	369.5
711.56	378.5
717.004	367.5
722.442	362.5
727.874	362.5
733.301	354.5
738.722	351.5
744.137	349.5
749.547	350.5
754.951	345.5
760.349	360.5
765.741	356.5
771.128	355.5
776.509	348.5
781.885	368.5
787.254	360.5
792.618	363.5
797.977	360.5
803.33	358.5
808.677	361.5
814.019	360.5
819.355	356.5
824.686	350.5
830.011	357.5
835.33	367.5
840.644	356.5
845.952	371.5
851.255	370.5
856.552	365.5
861.844	367.5
867.13	375.5
872.41	371.5
877.686	374.5
882.955	374.5
888.219	375.5
893.478	360.5
898.731	353.5
903.979	346.5
909.221	339.5
914.458	335.5
919.69	336.5
924.916	326.5
930.136	319.5
935.351	325.5
940.561	322.5
945.766	316.5
950.965	314.5
956.158	320.5
961.347	321.5
966.529	314.5
971.707	294.5
976.879	294.5
982.046	296.5
987.208	290.5
992.364	299.5
997.515	301.5
1002.66	311.5
1007.801	316.5
1012.936	310.5
1018.066	321.5
1023.19	318.5
1028.309	320.5
1033.423	324.5
1038.532	320.5
1043.636	331.5
1048.734	318.5
1053.827	319.5
1058.915	334.5
1063.998	345.5
1069.075	359.5
1074.147	348.5
1079.214	355.5
1084.276	369.5
1089.333	366.5
1094.385	350.5
1099.431	354.5
1104.472	340.5
1109.509	337.5
1114.54	331.5
1119.565	332.5
1124.586	338.5
1129.602	340.5
1134.613	323.5
1139.618	301.5
1144.619	290.5
1149.614	278.5
1154.604	272.5
1159.589	277.5
1164.57	275.5
1169.545	271.5
1174.515	262.5
1179.48	255.5
1184.44	256.5
1189.395	251.5
1194.345	244.5
1199.29	246.5
1204.23	245.5
1209.165	243.5
1214.095	257.5
1219.021	252.5
1223.941	252.5
1228.856	263.5
1233.766	268.5
1238.672	266.5
1243.572	275.5
1248.467	283.5
1253.358	281.5
1258.244	281.5
1263.124	285.5
1268	290.5
1272.871	277.5
1277.737	281.5
1282.599	265.5
1287.455	267.5
1292.306	275.5
1297.153	287.5
1301.995	304.5
1306.832	320.5
1311.664	308.5
1316.491	291.5
1321.314	284.5
1326.132	265.5
1330.945	255.5
1335.753	248.5
1340.556	249.5
1345.354	242.5
1350.148	238.5
1354.937	238.5
1359.722	232.5
1364.501	227.5
1369.276	237.5
1374.046	232.5
1378.811	230.5
1383.572	227.5
1388.327	232.5
1393.079	215.5
1397.825	212.5
1402.567	219.5
1407.304	209.5
1412.036	212.5
1416.764	207.5
1421.487	216.5
1426.205	228.5
1430.919	228.5
1435.628	257.5
1440.333	279.5
1445.032	303.5
1449.727	308.5
1454.418	310.5
1459.104	303.5
1463.785	286.5
1468.462	275.5
1473.134	243.5
1477.802	229.5
1482.465	211.5
1487.123	191.5
1491.777	172.5
1496.426	168.5
1501.071	167.5
1505.711	163.5
1510.347	162.5
1514.978	174.5
1519.604	177.5
1524.226	175.5
1528.844	167.5
1533.457	157.5
1538.065	160.5
1542.669	162.5
1547.269	158.5
1551.864	158.5
1556.454	160.5
1561.041	168.5
1565.622	165.5
1570.199	164.5
1574.772	159.5
1579.34	162.5
1583.904	166.5
1588.464	166.5
1593.019	166.5
1597.569	168.5
1602.115	165.5
1606.657	166.5
1611.195	170.5
1615.728	173.5
1620.256	179.5
1624.78	177.5
1629.3	179.5
1633.816	181.5
1638.327	182.5
1642.834	186.5
1647.336	186.5
1651.834	197.5
1656.328	205.5
1660.817	201.5
1665.302	206.5
1669.783	200.5
1674.259	187.5
1678.732	182.5
1683.199	167.5
1687.663	163.5
1692.122	152.5
1696.577	148.5
1701.028	146.5
1705.474	136.5
1709.917	135.5
1714.355	133.5
1718.788	122.5
1723.218	119.5
1727.643	122.5
1732.064	113.5
1736.481	119.5
1740.893	109.5
1745.301	111.5
1749.705	108.5
1754.105	104.5
1758.501	99.5
1762.893	93.5
1767.28	91.5
1771.663	93.5
1776.042	91.5
1780.417	81.5
1784.787	86.5
1789.154	85.5
1793.516	93.5
1797.874	89.5
1802.228	83.5
1806.578	88.5
1810.924	90.5
1815.266	82.5
1819.603	80.5
1823.937	82.5
1828.266	80.5
1832.591	77.5
1836.913	74.5
1841.23	74.5
1845.543	72.5
1849.852	71.5
1854.156	71.5
1858.457	73.5
1862.754	75.5
1867.047	75.5
1871.335	74.5
1875.62	73.5
1879.9	66.5
1884.177	71.5
1888.449	69.5
1892.718	71.5
1896.982	74.5
1901.243	67.5
1905.499	73.5
1909.752	68.5
1914	68.5
1918.245	65.5
1922.485	69.5
1926.722	70.5
1930.954	65.5
1935.183	69.5
1939.408	70.5
1943.628	66.5
1947.845	71.5
1952.058	69.5
1956.267	68.5
1960.472	73.5
1964.673	69.5
1968.87	64.5
1973.063	62.5
1977.252	58.5
1981.438	59.5
1985.619	63.5
1989.797	56.5
1993.971	59.5
1998.14	61.5
2002.306	64.5
2006.469	59.5
2010.627	52.5
2014.781	57.5
2018.932	64.5
2023.078	58.5
2027.221	60.5
2031.36	55.5
2035.495	60.5
2039.627	58.5
2043.754	55.5
2047.878	54.5
2051.998	53.5
2056.114	58.5
2060.226	51.5
2064.334	60.5
2068.439	52.5
2072.54	51.5
2076.637	59.5
2080.73	58.5
2084.82	61.5
2088.906	66.5
2092.988	56.5
2097.066	56.5
2101.14	63.5
2105.211	56.5
2109.278	51.5
2113.342	54.5
2117.401	55.5
2121.457	60.5
2125.509	54.5
2129.558	54.5
2133.602	52.5
2137.643	56.5
2141.681	52.5
2145.714	53.5
2149.744	45.5
2153.77	49.5
2157.793	46.5
2161.812	47.5
2165.827	44.5
2169.838	49.5
2173.846	45.5
2177.851	43.5
2181.851	42.5
2185.848	41.5
2189.841	40.5
2193.831	38.5
2197.817	38.5
2201.799	43.5
2205.778	46.5
2209.753	37.5
2213.725	44.5
2217.693	40.5
2221.657	37.5
2225.618	38.5
2229.575	35.5
2233.529	35.5
2237.479	36.5
2241.425	34.5
2245.368	38.5
2249.307	39.5
2253.243	34.5
2257.175	32.5
2261.104	33.5
2265.029	30.5
2268.95	31.5
2272.868	33.5
2276.783	25.5
2280.694	33.5
2284.601	24.5
2288.505	28.5
2292.405	25.5
2296.302	26.5
2300.195	24.5
2304.085	23.5
2307.971	25.5
2311.854	23.5
2315.734	24.5
2319.609	22.5
2323.482	24.5
2327.351	25.5
2331.216	21.5
2335.078	25.5
2338.937	23.5
2342.792	20.5
2346.643	17.5
2350.492	17.5
2354.336	16.5
2358.178	16.5
2362.015	19.5
2365.85	14.5
2369.681	18.5
2373.508	16.5
2377.333	17.5
2381.153	16.5
2384.971	12.5
2388.785	15.5
2392.595	15.5
2396.402	14.5
2400.206	14.5
2404.007	14.5
2407.804	12.5
2411.597	12.5
2415.388	10.5
2419.174	13.5
2422.958	10.5
2426.738	14.5
2430.515	12.5
2434.289	11.5
2438.059	11.5
2441.825	9.5
2445.589	8.5
2449.349	11.5
2453.106	8.5
2456.859	9.5
2460.61	10.5
2464.356	7.5
2468.1	5.5
2471.84	11.5
2475.577	10.5
2479.311	5.5
2483.041	7.5
2486.768	10.5
2490.492	6.5
2494.213	7.5
2497.93	10.5
2501.644	6.5
2505.355	8.5
2509.062	6.5
2512.766	10.5
2516.467	9.5
2520.165	7.5
2523.859	8.5
2527.551	9.5
2531.239	9.5
2534.923	6.5
2538.605	3.5
2542.283	6.5
2545.958	5.5
2549.63	4.5
2553.299	6.5
2556.964	9.5
2560.626	13.5
2564.285	4.5
2567.941	7.5
2571.594	6.5
2575.243	4.5
2578.89	9.5
2582.533	6.5
2586.173	7.5
2589.809	7.5
2593.443	5.5
2597.073	3.5
2600.701	7.5
2604.325	7.5
2607.946	3.5
2611.564	9.5
2615.178	13.5
2618.79	4.5
2622.398	6.5
2626.004	5.5
2629.606	7.5
2633.205	6.5
2636.801	9.5
2640.394	8.5
2643.983	7.5
2647.57	4.5
2651.153	4.5
2654.734	2.5
2658.311	7.5
2661.885	8.5
2665.456	4.5
2669.025	1.5
2672.589	-2.5
2676.151	2.5
2679.71	1.5
2683.266	2.5
2686.819	3.5
2690.368	8.5
2693.915	5.5
2697.458	8.5
2700.999	1.5
2704.536	0.5
2708.071	7.5
2711.602	5.5
2715.13	4.5
2718.656	11.5
2722.178	9.5
2725.697	3.5
2729.214	5.5
2732.727	8.5
2736.237	6.5
2739.744	13.5
2743.249	6.5
2746.75	9.5
2750.248	2.5
2753.743	4.5
2757.236	7.5
2760.725	4.5
2764.211	8.5
2767.695	7.5
2771.175	8.5
2774.652	5.5
2778.127	4.5
2781.598	2.5
2785.067	8.5
2788.532	4.5
2791.995	9.5
2795.455	9.5
2798.911	10.5
2802.365	5.5
2805.816	8.5
2809.264	11.5
2812.709	11.5
2816.151	16.5
2819.59	15.5
2823.026	18.5
2826.46	23.5
2829.89	22.5
2833.318	27.5
2836.742	29.5
2840.164	38.5
2843.583	51.5
2846.999	60.5
2850.412	74.5
2853.822	80.5
2857.229	91.5
2860.634	94.5
2864.035	93.5
2867.434	96.5
2870.83	103.5
2874.223	103.5
2877.613	106.5
2881	112.5
2884.385	114.5
2887.766	123.5
2891.145	119.5
2894.521	123.5
2897.894	112.5
2901.264	111.5
2904.631	113.5
2907.996	111.5
2911.358	108.5
2914.717	108.5
2918.073	107.5
2921.426	104.5
2924.777	103.5
2928.124	106.5
2931.469	105.5
2934.811	104.5
2938.15	96.5
2941.487	94.5
2944.821	91.5
2948.152	91.5
2951.48	79.5
2954.805	80.5
2958.128	76.5
2961.447	76.5
2964.765	67.5
2968.079	56.5
2971.39	59.5
2974.699	56.5
2978.005	58.5
2981.308	52.5
2984.609	52.5
2987.907	50.5
2991.202	47.5
2994.494	45.5
2997.784	44.5
3001.07	42.5
3004.355	44.5
3007.636	41.5
3010.915	40.5
3014.191	40.5
3017.464	34.5
3020.734	33.5
3024.002	33.5
3027.267	34.5
3030.53	39.5
3033.789	38.5
3037.046	33.5
3040.301	37.5
3043.552	30.5
3046.801	31.5
3050.048	38.5
3053.291	38.5
3056.532	43.5
3059.771	44.5
3063.006	40.5
3066.239	48.5
3069.469	46.5
3072.697	45.5
3075.922	51.5
3079.144	56.5
3082.364	53.5
3085.581	51.5
3088.795	52.5
3092.007	47.5
3095.216	60.5
3098.423	59.5
3101.627	65.5
3104.828	66.5
3108.026	67.5
3111.222	62.5
3114.416	65.5
3117.607	66.5
3120.795	68.5
3123.98	78.5
3127.163	79.5
3130.344	77.5
3133.521	74.5
3136.696	74.5
3139.869	79.5
3143.039	87.5
3146.206	93.5
3149.371	89.5
3152.533	88.5
3155.693	88.5
3158.85	86.5
3162.005	89.5
3165.157	85.5
3168.306	89.5
3171.453	92.5
3174.597	89.5
3177.739	86.5
3180.878	87.5
3184.014	85.5
3187.149	87.5
3190.28	90.5
3193.409	92.5
3196.536	97.5
3199.659	95.5
3202.781	89.5
3205.9	84.5
3209.016	94.5
3212.13	93.5
3215.241	91.5
3218.35	91.5
3221.456	89.5
3224.56	89.5
3227.661	89.5
3230.76	88.5
3233.856	90.5
3236.95	83.5
3240.041	84.5
3243.13	80.5
3246.216	81.5
3249.3	87.5
3252.382	80.5
3255.46	78.5
3258.537	80.5
3261.611	80.5
3264.682	81.5
3267.751	76.5
3270.818	83.5
3273.882	79.5
3276.943	83.5
3280.002	76.5
3283.059	73.5
3286.113	76.5
3289.165	74.5
3292.214	74.5
3295.261	74.5
3298.306	78.5
3301.348	72.5
3304.387	69.5
3307.425	64.5
3310.459	63.5
3313.492	65.5
3316.521	65.5
3319.549	66.5
3322.574	60.5
3325.597	58.5
3328.617	61.5
3331.635	57.5
3334.65	68.5
3337.663	60.5
3340.674	59.5
3343.682	58.5
3346.688	62.5
3349.691	56.5
3352.692	54.5
3355.691	55.5
3358.687	58.5
3361.681	54.5
3364.673	57.5
3367.662	51.5
3370.649	59.5
3373.633	56.5
3376.615	49.5
3379.595	49.5
3382.572	49.5
3385.547	52.5
3388.52	51.5
3391.49	47.5
3394.458	45.5
3397.424	44.5
3400.387	41.5
3403.348	49.5
3406.307	39.5
3409.263	46.5
3412.217	44.5
3415.168	37.5
3418.118	41.5
3421.065	40.5
3424.009	39.5
3426.951	43.5
3429.891	42.5
3432.829	40.5
3435.764	34.5
3438.697	35.5
3441.628	30.5
3444.557	32.5
3447.483	29.5
3450.407	33.5
3453.328	33.5
3456.247	26.5
3459.164	28.5
3462.079	24.5
3464.991	22.5
3467.902	22.5
3470.809	23.5
3473.715	19.5
3476.618	19.5
3479.519	18.5
3482.418	12.5
3485.315	12.5
3488.209	10.5
3491.101	14.5
3493.99	16.5
3496.878	11.5
3499.763	10.5
3502.646	4.5
3505.527	4.5
3508.405	8.5
3511.281	8.5
3514.155	10.5
3517.027	8.5
3519.897	5.5
3522.764	-1.5
3525.629	1.5
3528.492	1.5
3531.352	0.5
3534.211	0.5
3537.067	-3.5
3539.921	-1.5
3542.773	-4.5
3545.622	-5.5
3548.469	-7.5
3551.315	-6.5
3554.157	-6.5
3556.998	-5.5
3559.837	-3.5
3562.673	-5.5
3565.507	-12.5
3568.339	-10.5
3571.169	-9.5
3573.996	-7.5
3576.822	-10.5
3579.645	-12.5
3582.466	-9.5
3585.285	-11.5
3588.101	-10.5
3590.916	-13.5
3593.728	-13.5
3596.538	-12.5
3599.346	-13.5
3602.152	-14.5
3604.956	-11.5
3607.757	-16.5
3610.556	-15.5
3613.354	-19.5
3616.149	-18.5
3618.942	-14.5
3621.732	-20.5
3624.521	-17.5
3627.307	-16.5
3630.092	-19.5
3632.874	-19.5
3635.654	-20.5
3638.432	-19.5
3641.208	-20.5
3643.982	-21.5
3646.753	-19.5
3649.523	-18.5
3652.29	-19.5
3655.055	-20.5
3657.818	-25.5
3660.579	-18.5
3663.338	-20.5
3666.095	-21.5
3668.849	-21.5
3671.602	-20.5
3674.352	-21.5
3677.101	-22.5
3679.847	-22.5
3682.591	-22.5
3685.333	-23.5
3688.073	-26.5
3690.811	-19.5
3693.547	-26.5
3696.281	-24.5
3699.013	-23.5
3701.742	-26.5
3704.47	-23.5
3707.195	-23.5
3709.919	-22.5
3712.64	-29.5
3715.359	-21.5
3718.076	-25.5
3720.792	-27.5
3723.505	-21.5
3726.216	-23.5
3728.925	-26.5
3731.632	-25.5
3734.336	-26.5
3737.039	-25.5
3739.74	-25.5
3742.439	-24.5
3745.136	-28.5
3747.83	-25.5
3750.523	-23.5
3753.213	-24.5
3755.902	-26.5
3758.589	-28.5
3761.273	-26.5
3763.956	-22.5
3766.636	-26.5
3769.315	-22.5
3771.991	-24.5
3774.665	-26.5
3777.338	-22.5
3780.008	-28.5
3782.677	-23.5
3785.343	-26.5
3788.007	-24.5
3790.67	-24.5
3793.33	-27.5
3795.989	-27.5
3798.645	-24.5
3801.299	-27.5
3803.952	-27.5
3806.602	-25.5
3809.251	-25.5
3811.897	-25.5
3814.542	-27.5
3817.184	-23.5
3819.825	-24.5
3822.463	-24.5
3825.1	-27.5
3827.735	-22.5
3830.367	-24.5
3832.998	-27.5
3835.627	-26.5
3838.253	-23.5
3840.878	-29.5
3843.501	-22.5
3846.122	-27.5
3848.741	-23.5
3851.358	-26.5
3853.973	-24.5
3856.586	-25.5
3859.197	-28.5
3861.806	-27.5
3864.414	-26.5
3867.019	-24.5
3869.622	-24.5
3872.224	-30.5
3874.823	-29.5
3877.421	-23.5
3880.016	-24.5
3882.61	-20.5
3885.202	-14.5
3887.792	-14.5
3890.38	-22.5
3892.966	-24.5
3895.55	-25.5
3898.132	-27.5
3900.713	-25.5
3903.291	-24.5
3905.868	-24.5
3908.442	-26.5
3911.015	-25.5
3913.586	-25.5
3916.155	-30.5
3918.722	-28.5
3921.287	-23.5
3923.85	-24.5
3926.411	-23.5
3928.971	-21.5
3931.528	-28.5
3934.084	-28.5
3936.638	-27.5
3939.19	-29.5
3941.74	-23.5
3944.288	-26.5
3946.834	-26.5
3949.378	-27.5
3951.921	-25.5
3954.462	-30.5
3957	-27.5
3959.537	-24.5
3962.072	-24.5
3964.606	-22.5
3967.137	-25.5
3969.667	-25.5
3972.194	-30.5
3974.72	-29.5
3977.244	-26.5
3979.766	-23.5
3982.286	-19.5
3984.805	-24.5
3987.321	-27.5
3989.836	-28.5
3992.349	-28.5
3994.86	-26.5
3997.369	-24.5
3999.877	-22.5
4002.382	-25.5
4004.886	-24.5
4007.388	-28.5
4009.888	-28.5
4012.386	-27.5
4014.883	-24.5
4017.377	-26.5
4019.87	-26.5
4022.361	-21.5
4024.85	-29.5
4027.338	-31.5
4029.823	-29.5
4032.307	-29.5
4034.789	-24.5
4037.269	-24.5
4039.747	-22.5
4042.224	-26.5
4044.699	-29.5
4047.172	-29.5
4049.643	-29.5
4052.112	-25.5
4054.58	-21.5
4057.046	-22.5
4059.51	-28.5
4061.972	-28.5
4064.432	-23.5
4066.891	-26.5
4069.348	-25.5
4071.803	-24.5
4074.256	-23.5
4076.708	-23.5
4079.158	-26.5
4081.606	-27.5
4084.052	-24.5
4086.497	-23.5
4088.939	-24.5
4091.38	-22.5
4093.819	-24.5
4096.257	-28.5
4098.693	-27.5
4101.127	-26.5
4103.559	-28.5
4105.989	-12.5
4108.418	-13.5
4110.845	-9.5
4113.27	-10.5
4115.694	-9.5
4118.115	-9.5
4120.535	-24.5
4122.954	-28.5
4125.37	-24.5
4127.785	-23.5
4130.198	-27.5
4132.609	-24.5
4135.019	-25.5
4137.427	-28.5
4139.833	-24.5
4142.237	-27.5
