Data from 0.25_n=4_RamanShift_03.txt Node
Date: Mon Mar 19 12:13:18 IST 2018
User: aro
Spectrometer: QEPB0276
Trigger mode: 0
Integration Time (sec): 5.000000E0
Scans to average: 1
Electric dark correction enabled: true
Nonlinearity correction enabled: false
Boxcar width: 0
XAxis mode: Raman Shifts
Number of Pixels in Spectrum: 1044
>>>>>Begin Spectral Data<<<<<
160.701	-2.5
166.742	1.5
172.777	3.5
178.805	12.5
184.826	22.5
190.841	43.5
196.849	67.5
202.85	84.5
208.845	88.5
214.833	93.5
220.815	91.5
226.789	95.5
232.758	91.5
238.719	98.5
244.674	97.5
250.623	95.5
256.565	92.5
262.5	94.5
268.429	91.5
274.351	95.5
280.267	95.5
286.176	88.5
292.079	96.5
297.975	93.5
303.865	97.5
309.748	100.5
315.625	99.5
321.495	96.5
327.359	97.5
333.217	103.5
339.068	100.5
344.912	104.5
350.751	98.5
356.583	104.5
362.408	98.5
368.227	105.5
374.04	104.5
379.847	109.5
385.647	111.5
391.44	116.5
397.228	116.5
403.009	124.5
408.784	126.5
414.553	135.5
420.315	142.5
426.071	149.5
431.821	131.5
437.565	111.5
443.302	103.5
449.033	113.5
454.758	106.5
460.477	106.5
466.189	103.5
471.896	100.5
477.596	99.5
483.29	96.5
488.978	90.5
494.66	92.5
500.335	91.5
506.005	84.5
511.668	78.5
517.325	78.5
522.977	69.5
528.622	63.5
534.261	61.5
539.894	57.5
545.521	53.5
551.141	59.5
556.756	50.5
562.365	50.5
567.968	52.5
573.565	54.5
579.155	53.5
584.74	54.5
590.319	52.5
595.892	53.5
601.459	51.5
607.02	51.5
612.575	48.5
618.124	48.5
623.667	51.5
629.204	49.5
634.735	46.5
640.261	49.5
645.781	51.5
651.294	57.5
656.802	55.5
662.304	46.5
667.8	45.5
673.29	42.5
678.775	46.5
684.254	42.5
689.726	40.5
695.193	43.5
700.655	44.5
706.11	45.5
711.56	37.5
717.004	37.5
722.442	35.5
727.874	41.5
733.301	38.5
738.722	42.5
744.137	37.5
749.547	42.5
754.951	42.5
760.349	44.5
765.741	42.5
771.128	44.5
776.509	41.5
781.885	47.5
787.254	43.5
792.618	50.5
797.977	50.5
803.33	54.5
808.677	63.5
814.019	68.5
819.355	74.5
824.686	56.5
830.011	51.5
835.33	50.5
840.644	54.5
845.952	65.5
851.255	64.5
856.552	55.5
861.844	43.5
867.13	45.5
872.41	41.5
877.686	35.5
882.955	35.5
888.219	34.5
893.478	35.5
898.731	35.5
903.979	34.5
909.221	43.5
914.458	38.5
919.69	34.5
924.916	32.5
930.136	30.5
935.351	32.5
940.561	37.5
945.766	40.5
950.965	38.5
956.158	36.5
961.347	37.5
966.529	43.5
971.707	37.5
976.879	43.5
982.046	42.5
987.208	35.5
992.364	34.5
997.515	34.5
1002.66	41.5
1007.801	43.5
1012.936	37.5
1018.066	36.5
1023.19	33.5
1028.309	31.5
1033.423	38.5
1038.532	38.5
1043.636	44.5
1048.734	44.5
1053.827	37.5
1058.915	34.5
1063.998	32.5
1069.075	30.5
1074.147	30.5
1079.214	31.5
1084.276	31.5
1089.333	33.5
1094.385	33.5
1099.431	33.5
1104.472	33.5
1109.509	36.5
1114.54	32.5
1119.565	30.5
1124.586	32.5
1129.602	29.5
1134.613	28.5
1139.618	29.5
1144.619	37.5
1149.614	38.5
1154.604	51.5
1159.589	55.5
1164.57	52.5
1169.545	49.5
1174.515	46.5
1179.48	39.5
1184.44	35.5
1189.395	29.5
1194.345	31.5
1199.29	31.5
1204.23	30.5
1209.165	31.5
1214.095	28.5
1219.021	37.5
1223.941	41.5
1228.856	32.5
1233.766	33.5
1238.672	31.5
1243.572	29.5
1248.467	29.5
1253.358	31.5
1258.244	35.5
1263.124	28.5
1268	26.5
1272.871	26.5
1277.737	25.5
1282.599	25.5
1287.455	26.5
1292.306	29.5
1297.153	25.5
1301.995	28.5
1306.832	28.5
1311.664	30.5
1316.491	32.5
1321.314	34.5
1326.132	39.5
1330.945	48.5
1335.753	48.5
1340.556	46.5
1345.354	37.5
1350.148	36.5
1354.937	32.5
1359.722	32.5
1364.501	36.5
1369.276	36.5
1374.046	31.5
1378.811	27.5
1383.572	23.5
1388.327	25.5
1393.079	22.5
1397.825	26.5
1402.567	21.5
1407.304	26.5
1412.036	21.5
1416.764	22.5
1421.487	22.5
1426.205	21.5
1430.919	21.5
1435.628	27.5
1440.333	37.5
1445.032	40.5
1449.727	37.5
1454.418	51.5
1459.104	52.5
1463.785	61.5
1468.462	49.5
1473.134	43.5
1477.802	34.5
1482.465	25.5
1487.123	27.5
1491.777	30.5
1496.426	24.5
1501.071	23.5
1505.711	21.5
1510.347	17.5
1514.978	18.5
1519.604	19.5
1524.226	20.5
1528.844	23.5
1533.457	23.5
1538.065	24.5
1542.669	24.5
1547.269	18.5
1551.864	16.5
1556.454	18.5
1561.041	16.5
1565.622	13.5
1570.199	19.5
1574.772	17.5
1579.34	19.5
1583.904	21.5
1588.464	19.5
1593.019	18.5
1597.569	16.5
1602.115	15.5
1606.657	17.5
1611.195	20.5
1615.728	22.5
1620.256	21.5
1624.78	18.5
1629.3	20.5
1633.816	18.5
1638.327	21.5
1642.834	14.5
1647.336	17.5
1651.834	14.5
1656.328	17.5
1660.817	19.5
1665.302	20.5
1669.783	21.5
1674.259	19.5
1678.732	19.5
1683.199	17.5
1687.663	16.5
1692.122	16.5
1696.577	17.5
1701.028	18.5
1705.474	17.5
1709.917	19.5
1714.355	17.5
1718.788	15.5
1723.218	14.5
1727.643	12.5
1732.064	11.5
1736.481	13.5
1740.893	11.5
1745.301	22.5
1749.705	15.5
1754.105	17.5
1758.501	15.5
1762.893	11.5
1767.28	9.5
1771.663	15.5
1776.042	7.5
1780.417	11.5
1784.787	16.5
1789.154	15.5
1793.516	15.5
1797.874	17.5
1802.228	13.5
1806.578	8.5
1810.924	13.5
1815.266	10.5
1819.603	9.5
1823.937	15.5
1828.266	13.5
1832.591	14.5
1836.913	12.5
1841.23	9.5
1845.543	9.5
1849.852	8.5
1854.156	8.5
1858.457	8.5
1862.754	10.5
1867.047	11.5
1871.335	15.5
1875.62	12.5
1879.9	12.5
1884.177	15.5
1888.449	6.5
1892.718	12.5
1896.982	10.5
1901.243	13.5
1905.499	10.5
1909.752	7.5
1914	10.5
1918.245	9.5
1922.485	7.5
1926.722	12.5
1930.954	8.5
1935.183	8.5
1939.408	9.5
1943.628	10.5
1947.845	9.5
1952.058	13.5
1956.267	11.5
1960.472	8.5
1964.673	12.5
1968.87	8.5
1973.063	9.5
1977.252	11.5
1981.438	9.5
1985.619	10.5
1989.797	8.5
1993.971	4.5
1998.14	10.5
2002.306	7.5
2006.469	11.5
2010.627	9.5
2014.781	10.5
2018.932	9.5
2023.078	7.5
2027.221	7.5
2031.36	3.5
2035.495	8.5
2039.627	4.5
2043.754	6.5
2047.878	11.5
2051.998	10.5
2056.114	8.5
2060.226	11.5
2064.334	8.5
2068.439	5.5
2072.54	2.5
2076.637	7.5
2080.73	8.5
2084.82	8.5
2088.906	12.5
2092.988	10.5
2097.066	7.5
2101.14	13.5
2105.211	5.5
2109.278	6.5
2113.342	6.5
2117.401	5.5
2121.457	8.5
2125.509	10.5
2129.558	11.5
2133.602	12.5
2137.643	4.5
2141.681	7.5
2145.714	3.5
2149.744	9.5
2153.77	1.5
2157.793	9.5
2161.812	5.5
2165.827	8.5
2169.838	6.5
2173.846	3.5
2177.851	6.5
2181.851	5.5
2185.848	8.5
2189.841	8.5
2193.831	2.5
2197.817	7.5
2201.799	2.5
2205.778	3.5
2209.753	4.5
2213.725	5.5
2217.693	5.5
2221.657	6.5
2225.618	4.5
2229.575	6.5
2233.529	5.5
2237.479	1.5
2241.425	0.5
2245.368	4.5
2249.307	4.5
2253.243	7.5
2257.175	6.5
2261.104	11.5
2265.029	4.5
2268.95	1.5
2272.868	2.5
2276.783	2.5
2280.694	4.5
2284.601	4.5
2288.505	6.5
2292.405	6.5
2296.302	4.5
2300.195	8.5
2304.085	2.5
2307.971	2.5
2311.854	-1.5
2315.734	1.5
2319.609	3.5
2323.482	3.5
2327.351	5.5
2331.216	10.5
2335.078	6.5
2338.937	7.5
2342.792	-0.5
2346.643	0.5
2350.492	3.5
2354.336	-0.5
2358.178	1.5
2362.015	2.5
2365.85	3.5
2369.681	4.5
2373.508	3.5
2377.333	2.5
2381.153	5.5
2384.971	5.5
2388.785	3.5
2392.595	6.5
2396.402	1.5
2400.206	1.5
2404.007	-1.5
2407.804	1.5
2411.597	2.5
2415.388	2.5
2419.174	4.5
2422.958	7.5
2426.738	-2.5
2430.515	5.5
2434.289	4.5
2438.059	-2.5
2441.825	-3.5
2445.589	0.5
2449.349	2.5
2453.106	3.5
2456.859	4.5
2460.61	6.5
2464.356	7.5
2468.1	4.5
2471.84	2.5
2475.577	-2.5
2479.311	0.5
2483.041	-0.5
2486.768	2.5
2490.492	4.5
2494.213	3.5
2497.93	0.5
2501.644	2.5
2505.355	0.5
2509.062	-3.5
2512.766	-1.5
2516.467	-0.5
2520.165	3.5
2523.859	1.5
2527.551	1.5
2531.239	6.5
2534.923	1.5
2538.605	-0.5
2542.283	-3.5
2545.958	2.5
2549.63	0.5
2553.299	2.5
2556.964	4.5
2560.626	1.5
2564.285	0.5
2567.941	1.5
2571.594	-0.5
2575.243	-0.5
2578.89	4.5
2582.533	0.5
2586.173	2.5
2589.809	2.5
2593.443	2.5
2597.073	1.5
2600.701	1.5
2604.325	0.5
2607.946	4.5
2611.564	6.5
2615.178	4.5
2618.79	2.5
2622.398	1.5
2626.004	0.5
2629.606	1.5
2633.205	-0.5
2636.801	4.5
2640.394	4.5
2643.983	2.5
2647.57	5.5
2651.153	7.5
2654.734	2.5
2658.311	3.5
2661.885	0.5
2665.456	-0.5
2669.025	1.5
2672.589	6.5
2676.151	6.5
2679.71	8.5
2683.266	1.5
2686.819	8.5
2690.368	3.5
2693.915	2.5
2697.458	-1.5
2700.999	4.5
2704.536	3.5
2708.071	5.5
2711.602	5.5
2715.13	6.5
2718.656	3.5
2722.178	2.5
2725.697	-1.5
2729.214	1.5
2732.727	0.5
2736.237	4.5
2739.744	3.5
2743.249	8.5
2746.75	5.5
2750.248	4.5
2753.743	4.5
2757.236	2.5
2760.725	-1.5
2764.211	3.5
2767.695	-0.5
2771.175	-0.5
2774.652	2.5
2778.127	2.5
2781.598	6.5
2785.067	4.5
2788.532	2.5
2791.995	-2.5
2795.455	0.5
2798.911	-0.5
2802.365	1.5
2805.816	2.5
2809.264	1.5
2812.709	4.5
2816.151	6.5
2819.59	3.5
2823.026	1.5
2826.46	1.5
2829.89	6.5
2833.318	5.5
2836.742	6.5
2840.164	13.5
2843.583	14.5
2846.999	14.5
2850.412	15.5
2853.822	16.5
2857.229	14.5
2860.634	8.5
2864.035	12.5
2867.434	15.5
2870.83	17.5
2874.223	25.5
2877.613	26.5
2881	23.5
2884.385	24.5
2887.766	28.5
2891.145	31.5
2894.521	30.5
2897.894	29.5
2901.264	25.5
2904.631	28.5
2907.996	28.5
2911.358	24.5
2914.717	23.5
2918.073	17.5
2921.426	20.5
2924.777	15.5
2928.124	17.5
2931.469	14.5
2934.811	14.5
2938.15	16.5
2941.487	14.5
2944.821	12.5
2948.152	11.5
2951.48	13.5
2954.805	16.5
2958.128	16.5
2961.447	13.5
2964.765	10.5
2968.079	19.5
2971.39	9.5
2974.699	11.5
2978.005	5.5
2981.308	6.5
2984.609	5.5
2987.907	5.5
2991.202	6.5
2994.494	5.5
2997.784	4.5
3001.07	6.5
3004.355	3.5
3007.636	7.5
3010.915	4.5
3014.191	5.5
3017.464	3.5
3020.734	5.5
3024.002	0.5
3027.267	3.5
3030.53	1.5
3033.789	1.5
3037.046	0.5
3040.301	5.5
3043.552	1.5
3046.801	1.5
3050.048	1.5
3053.291	-0.5
3056.532	1.5
3059.771	2.5
3063.006	0.5
3066.239	-0.5
3069.469	1.5
3072.697	1.5
3075.922	0.5
3079.144	2.5
3082.364	1.5
3085.581	2.5
3088.795	6.5
3092.007	-0.5
3095.216	2.5
3098.423	0.5
3101.627	-0.5
3104.828	4.5
3108.026	1.5
3111.222	2.5
3114.416	4.5
3117.607	4.5
3120.795	3.5
3123.98	4.5
3127.163	2.5
3130.344	1.5
3133.521	4.5
3136.696	3.5
3139.869	5.5
3143.039	5.5
3146.206	4.5
3149.371	3.5
3152.533	3.5
3155.693	6.5
3158.85	0.5
3162.005	4.5
3165.157	3.5
3168.306	2.5
3171.453	3.5
3174.597	8.5
3177.739	3.5
3180.878	3.5
3184.014	1.5
3187.149	-1.5
3190.28	2.5
3193.409	0.5
3196.536	4.5
3199.659	5.5
3202.781	9.5
3205.9	6.5
3209.016	4.5
3212.13	1.5
3215.241	4.5
3218.35	4.5
3221.456	0.5
3224.56	6.5
3227.661	4.5
3230.76	4.5
3233.856	3.5
3236.95	7.5
3240.041	1.5
3243.13	-2.5
3246.216	-0.5
3249.3	6.5
3252.382	5.5
3255.46	6.5
3258.537	4.5
3261.611	9.5
3264.682	3.5
3267.751	2.5
3270.818	-1.5
3273.882	2.5
3276.943	4.5
3280.002	3.5
3283.059	4.5
3286.113	4.5
3289.165	-0.5
3292.214	1.5
3295.261	3.5
3298.306	2.5
3301.348	-4.5
3304.387	-1.5
3307.425	1.5
3310.459	6.5
3313.492	2.5
3316.521	2.5
3319.549	4.5
3322.574	1.5
3325.597	-0.5
3328.617	-1.5
3331.635	-0.5
3334.65	0.5
3337.663	4.5
3340.674	4.5
3343.682	3.5
3346.688	4.5
3349.691	4.5
3352.692	1.5
3355.691	-2.5
3358.687	-5.5
3361.681	0.5
3364.673	5.5
3367.662	4.5
3370.649	8.5
3373.633	3.5
3376.615	7.5
3379.595	-3.5
3382.572	1.5
3385.547	-0.5
3388.52	-0.5
3391.49	1.5
3394.458	3.5
3397.424	0.5
3400.387	4.5
3403.348	0.5
3406.307	0.5
3409.263	4.5
3412.217	0.5
3415.168	-0.5
3418.118	1.5
3421.065	2.5
3424.009	1.5
3426.951	1.5
3429.891	1.5
3432.829	-1.5
3435.764	0.5
3438.697	-1.5
3441.628	1.5
3444.557	0.5
3447.483	1.5
3450.407	0.5
3453.328	4.5
3456.247	-3.5
3459.164	2.5
3462.079	0.5
3464.991	0.5
3467.902	0.5
3470.809	0.5
3473.715	1.5
3476.618	-0.5
3479.519	-3.5
3482.418	2.5
3485.315	-1.5
3488.209	1.5
3491.101	0.5
3493.99	-1.5
3496.878	1.5
3499.763	3.5
3502.646	2.5
3505.527	1.5
3508.405	-2.5
3511.281	-1.5
3514.155	-3.5
3517.027	3.5
3519.897	3.5
3522.764	0.5
3525.629	1.5
3528.492	2.5
3531.352	-0.5
3534.211	-1.5
3537.067	-8.5
3539.921	-3.5
3542.773	-5.5
3545.622	1.5
3548.469	-1.5
3551.315	2.5
3554.157	2.5
3556.998	0.5
3559.837	-2.5
3562.673	-5.5
3565.507	-0.5
3568.339	-1.5
3571.169	-1.5
3573.996	-0.5
3576.822	0.5
3579.645	-1.5
3582.466	2.5
3585.285	2.5
3588.101	-0.5
3590.916	1.5
3593.728	0.5
3596.538	-1.5
3599.346	-2.5
3602.152	-0.5
3604.956	-2.5
3607.757	-1.5
3610.556	-1.5
3613.354	1.5
3616.149	-2.5
3618.942	-1.5
3621.732	-1.5
3624.521	-1.5
3627.307	-2.5
3630.092	-3.5
3632.874	-2.5
3635.654	0.5
3638.432	-4.5
3641.208	0.5
3643.982	0.5
3646.753	-0.5
3649.523	-8.5
3652.29	-1.5
3655.055	-7.5
3657.818	-0.5
3660.579	0.5
3663.338	-0.5
3666.095	0.5
3668.849	3.5
3671.602	-0.5
3674.352	2.5
3677.101	-4.5
3679.847	-4.5
3682.591	-1.5
3685.333	-0.5
3688.073	-0.5
3690.811	2.5
3693.547	0.5
3696.281	-0.5
3699.013	-1.5
3701.742	-3.5
3704.47	-7.5
3707.195	-4.5
3709.919	-4.5
3712.64	-0.5
3715.359	-0.5
3718.076	0.5
3720.792	-0.5
3723.505	-0.5
3726.216	-2.5
3728.925	-0.5
3731.632	-0.5
3734.336	-5.5
3737.039	-0.5
3739.74	-2.5
3742.439	-2.5
3745.136	1.5
3747.83	-3.5
3750.523	-2.5
3753.213	-5.5
3755.902	2.5
3758.589	-0.5
3761.273	-2.5
3763.956	-2.5
3766.636	-5.5
3769.315	-3.5
3771.991	-4.5
3774.665	-0.5
3777.338	-0.5
3780.008	1.5
3782.677	-0.5
3785.343	-4.5
3788.007	-3.5
3790.67	-2.5
3793.33	-4.5
3795.989	-3.5
3798.645	-4.5
3801.299	1.5
3803.952	0.5
3806.602	-0.5
3809.251	0.5
3811.897	-3.5
3814.542	0.5
3817.184	-3.5
3819.825	-4.5
3822.463	-6.5
3825.1	-0.5
3827.735	-1.5
3830.367	1.5
3832.998	-0.5
3835.627	2.5
3838.253	0.5
3840.878	-2.5
3843.501	-4.5
3846.122	-5.5
3848.741	-4.5
3851.358	-3.5
3853.973	1.5
3856.586	-0.5
3859.197	-0.5
3861.806	-2.5
3864.414	-2.5
3867.019	-4.5
3869.622	-2.5
3872.224	-4.5
3874.823	-3.5
3877.421	1.5
3880.016	0.5
3882.61	2.5
3885.202	4.5
3887.792	0.5
3890.38	-3.5
3892.966	-3.5
3895.55	-4.5
3898.132	-1.5
3900.713	-1.5
3903.291	-0.5
3905.868	0.5
3908.442	-0.5
3911.015	-3.5
3913.586	-0.5
3916.155	1.5
3918.722	0.5
3921.287	-4.5
3923.85	-0.5
3926.411	-3.5
3928.971	-3.5
3931.528	-0.5
3934.084	0.5
3936.638	-1.5
3939.19	-0.5
3941.74	-0.5
3944.288	-5.5
3946.834	0.5
3949.378	-0.5
3951.921	-2.5
3954.462	-4.5
3957	-3.5
3959.537	1.5
3962.072	1.5
3964.606	-0.5
3967.137	-2.5
3969.667	0.5
3972.194	-6.5
3974.72	-3.5
3977.244	-3.5
3979.766	1.5
3982.286	-5.5
3984.805	-0.5
3987.321	-2.5
3989.836	-1.5
3992.349	0.5
3994.86	-1.5
3997.369	-2.5
3999.877	-4.5
4002.382	-3.5
4004.886	-4.5
4007.388	1.5
4009.888	-3.5
4012.386	2.5
4014.883	-2.5
4017.377	-2.5
4019.87	-3.5
4022.361	-2.5
4024.85	-5.5
4027.338	-2.5
4029.823	-1.5
4032.307	-1.5
4034.789	-1.5
4037.269	0.5
4039.747	-0.5
4042.224	-0.5
4044.699	-4.5
4047.172	-3.5
4049.643	-5.5
4052.112	-3.5
4054.58	-0.5
4057.046	-0.5
4059.51	1.5
4061.972	1.5
4064.432	-0.5
4066.891	-1.5
4069.348	-2.5
4071.803	-6.5
4074.256	-6.5
4076.708	-2.5
4079.158	2.5
4081.606	-2.5
4084.052	2.5
4086.497	-1.5
4088.939	0.5
4091.38	-1.5
4093.819	-3.5
4096.257	-6.5
4098.693	-3.5
4101.127	-2.5
4103.559	3.5
4105.989	8.5
4108.418	2.5
4110.845	2.5
4113.27	-2.5
4115.694	-1.5
4118.115	-0.5
4120.535	-2.5
4122.954	-3.5
4125.37	-4.5
4127.785	-1.5
4130.198	-0.5
4132.609	-0.5
4135.019	-0.5
4137.427	-2.5
4139.833	-4.5
4142.237	-7.5
