Data from 0_RamanShift_03.txt Node
Date: Mon Mar 19 12:00:29 IST 2018
User: aro
Spectrometer: QEPB0276
Trigger mode: 0
Integration Time (sec): 5.000000E0
Scans to average: 1
Electric dark correction enabled: true
Nonlinearity correction enabled: false
Boxcar width: 0
XAxis mode: Raman Shifts
Number of Pixels in Spectrum: 1044
>>>>>Begin Spectral Data<<<<<
160.701	-1.1
166.742	0.9
172.777	3.9
178.805	19.9
184.826	42.9
190.841	83.9
196.849	138.9
202.85	172.9
208.845	185.9
214.833	184.9
220.815	174.9
226.789	187.9
232.758	182.9
238.719	184.9
244.674	185.9
250.623	193.9
256.565	194.9
262.5	190.9
268.429	185.9
274.351	179.9
280.267	184.9
286.176	177.9
292.079	184.9
297.975	175.9
303.865	178.9
309.748	177.9
315.625	187.9
321.495	189.9
327.359	187.9
333.217	193.9
339.068	189.9
344.912	188.9
350.751	176.9
356.583	182.9
362.408	178.9
368.227	180.9
374.04	185.9
379.847	185.9
385.647	201.9
391.44	211.9
397.228	227.9
403.009	238.9
408.784	239.9
414.553	232.9
420.315	228.9
426.071	238.9
431.821	216.9
437.565	197.9
443.302	196.9
449.033	190.9
454.758	195.9
460.477	198.9
466.189	193.9
471.896	182.9
477.596	181.9
483.29	169.9
488.978	169.9
494.66	170.9
500.335	169.9
506.005	158.9
511.668	153.9
517.325	152.9
522.977	146.9
528.622	151.9
534.261	147.9
539.894	148.9
545.521	139.9
551.141	134.9
556.756	130.9
562.365	123.9
567.968	121.9
573.565	120.9
579.155	114.9
584.74	112.9
590.319	117.9
595.892	119.9
601.459	118.9
607.02	117.9
612.575	121.9
618.124	114.9
623.667	107.9
629.204	106.9
634.735	105.9
640.261	108.9
645.781	108.9
651.294	117.9
656.802	115.9
662.304	107.9
667.8	107.9
673.29	106.9
678.775	106.9
684.254	99.9
689.726	98.9
695.193	102.9
700.655	100.9
706.11	100.9
711.56	101.9
717.004	100.9
722.442	102.9
727.874	98.9
733.301	95.9
738.722	96.9
744.137	97.9
749.547	99.9
754.951	98.9
760.349	101.9
765.741	105.9
771.128	106.9
776.509	104.9
781.885	113.9
787.254	114.9
792.618	107.9
797.977	119.9
803.33	143.9
808.677	177.9
814.019	208.9
819.355	211.9
824.686	161.9
830.011	141.9
835.33	148.9
840.644	159.9
845.952	181.9
851.255	169.9
856.552	149.9
861.844	119.9
867.13	103.9
872.41	112.9
877.686	99.9
882.955	95.9
888.219	96.9
893.478	94.9
898.731	100.9
903.979	104.9
909.221	105.9
914.458	97.9
919.69	93.9
924.916	89.9
930.136	89.9
935.351	93.9
940.561	102.9
945.766	102.9
950.965	100.9
956.158	100.9
961.347	90.9
966.529	100.9
971.707	110.9
976.879	125.9
982.046	128.9
987.208	113.9
992.364	105.9
997.515	105.9
1002.66	116.9
1007.801	111.9
1012.936	99.9
1018.066	95.9
1023.19	88.9
1028.309	95.9
1033.423	102.9
1038.532	113.9
1043.636	118.9
1048.734	114.9
1053.827	102.9
1058.915	89.9
1063.998	86.9
1069.075	81.9
1074.147	81.9
1079.214	83.9
1084.276	85.9
1089.333	85.9
1094.385	85.9
1099.431	90.9
1104.472	87.9
1109.509	86.9
1114.54	82.9
1119.565	81.9
1124.586	83.9
1129.602	78.9
1134.613	83.9
1139.618	88.9
1144.619	100.9
1149.614	115.9
1154.604	143.9
1159.589	166.9
1164.57	157.9
1169.545	144.9
1174.515	133.9
1179.48	112.9
1184.44	97.9
1189.395	86.9
1194.345	83.9
1199.29	81.9
1204.23	79.9
1209.165	76.9
1214.095	88.9
1219.021	99.9
1223.941	108.9
1228.856	108.9
1233.766	93.9
1238.672	83.9
1243.572	79.9
1248.467	78.9
1253.358	76.9
1258.244	80.9
1263.124	78.9
1268	72.9
1272.871	71.9
1277.737	76.9
1282.599	81.9
1287.455	76.9
1292.306	78.9
1297.153	80.9
1301.995	81.9
1306.832	85.9
1311.664	84.9
1316.491	88.9
1321.314	98.9
1326.132	117.9
1330.945	142.9
1335.753	164.9
1340.556	153.9
1345.354	113.9
1350.148	94.9
1354.937	92.9
1359.722	93.9
1364.501	96.9
1369.276	104.9
1374.046	94.9
1378.811	83.9
1383.572	73.9
1388.327	69.9
1393.079	66.9
1397.825	60.9
1402.567	59.9
1407.304	54.9
1412.036	57.9
1416.764	55.9
1421.487	57.9
1426.205	61.9
1430.919	70.9
1435.628	84.9
1440.333	107.9
1445.032	117.9
1449.727	116.9
1454.418	136.9
1459.104	169.9
1463.785	190.9
1468.462	185.9
1473.134	135.9
1477.802	98.9
1482.465	74.9
1487.123	65.9
1491.777	58.9
1496.426	58.9
1501.071	57.9
1505.711	54.9
1510.347	57.9
1514.978	50.9
1519.604	54.9
1524.226	50.9
1528.844	52.9
1533.457	53.9
1538.065	52.9
1542.669	48.9
1547.269	50.9
1551.864	46.9
1556.454	47.9
1561.041	49.9
1565.622	46.9
1570.199	50.9
1574.772	50.9
1579.34	48.9
1583.904	52.9
1588.464	47.9
1593.019	46.9
1597.569	49.9
1602.115	49.9
1606.657	49.9
1611.195	50.9
1615.728	47.9
1620.256	48.9
1624.78	44.9
1629.3	46.9
1633.816	42.9
1638.327	48.9
1642.834	42.9
1647.336	46.9
1651.834	48.9
1656.328	47.9
1660.817	46.9
1665.302	49.9
1669.783	52.9
1674.259	43.9
1678.732	41.9
1683.199	39.9
1687.663	40.9
1692.122	36.9
1696.577	38.9
1701.028	43.9
1705.474	40.9
1709.917	43.9
1714.355	39.9
1718.788	39.9
1723.218	35.9
1727.643	28.9
1732.064	33.9
1736.481	32.9
1740.893	34.9
1745.301	40.9
1749.705	36.9
1754.105	36.9
1758.501	32.9
1762.893	31.9
1767.28	28.9
1771.663	28.9
1776.042	24.9
1780.417	29.9
1784.787	28.9
1789.154	32.9
1793.516	32.9
1797.874	32.9
1802.228	32.9
1806.578	27.9
1810.924	29.9
1815.266	25.9
1819.603	27.9
1823.937	33.9
1828.266	25.9
1832.591	24.9
1836.913	25.9
1841.23	23.9
1845.543	24.9
1849.852	31.9
1854.156	27.9
1858.457	23.9
1862.754	33.9
1867.047	27.9
1871.335	30.9
1875.62	27.9
1879.9	24.9
1884.177	26.9
1888.449	21.9
1892.718	30.9
1896.982	28.9
1901.243	30.9
1905.499	27.9
1909.752	24.9
1914	18.9
1918.245	22.9
1922.485	20.9
1926.722	27.9
1930.954	23.9
1935.183	23.9
1939.408	25.9
1943.628	30.9
1947.845	25.9
1952.058	27.9
1956.267	15.9
1960.472	17.9
1964.673	20.9
1968.87	19.9
1973.063	26.9
1977.252	22.9
1981.438	21.9
1985.619	24.9
1989.797	18.9
1993.971	19.9
1998.14	17.9
2002.306	16.9
2006.469	18.9
2010.627	21.9
2014.781	23.9
2018.932	23.9
2023.078	21.9
2027.221	20.9
2031.36	15.9
2035.495	19.9
2039.627	15.9
2043.754	14.9
2047.878	20.9
2051.998	18.9
2056.114	17.9
2060.226	25.9
2064.334	16.9
2068.439	18.9
2072.54	17.9
2076.637	19.9
2080.73	13.9
2084.82	21.9
2088.906	18.9
2092.988	16.9
2097.066	13.9
2101.14	16.9
2105.211	18.9
2109.278	17.9
2113.342	19.9
2117.401	16.9
2121.457	18.9
2125.509	19.9
2129.558	14.9
2133.602	15.9
2137.643	14.9
2141.681	9.9
2145.714	14.9
2149.744	11.9
2153.77	14.9
2157.793	20.9
2161.812	18.9
2165.827	15.9
2169.838	12.9
2173.846	12.9
2177.851	10.9
2181.851	11.9
2185.848	10.9
2189.841	13.9
2193.831	12.9
2197.817	16.9
2201.799	12.9
2205.778	11.9
2209.753	11.9
2213.725	5.9
2217.693	8.9
2221.657	7.9
2225.618	12.9
2229.575	15.9
2233.529	13.9
2237.479	11.9
2241.425	7.9
2245.368	13.9
2249.307	7.9
2253.243	11.9
2257.175	6.9
2261.104	12.9
2265.029	5.9
2268.95	9.9
2272.868	8.9
2276.783	8.9
2280.694	8.9
2284.601	8.9
2288.505	10.9
2292.405	12.9
2296.302	8.9
2300.195	11.9
2304.085	6.9
2307.971	7.9
2311.854	4.9
2315.734	9.9
2319.609	8.9
2323.482	9.9
2327.351	6.9
2331.216	11.9
2335.078	9.9
2338.937	7.9
2342.792	3.9
2346.643	1.9
2350.492	4.9
2354.336	3.9
2358.178	7.9
2362.015	9.9
2365.85	8.9
2369.681	7.9
2373.508	4.9
2377.333	4.9
2381.153	5.9
2384.971	4.9
2388.785	5.9
2392.595	7.9
2396.402	6.9
2400.206	5.9
2404.007	5.9
2407.804	5.9
2411.597	4.9
2415.388	3.9
2419.174	6.9
2422.958	6.9
2426.738	1.9
2430.515	9.9
2434.289	2.9
2438.059	5.9
2441.825	0.9
2445.589	5.9
2449.349	4.9
2453.106	5.9
2456.859	1.9
2460.61	6.9
2464.356	7.9
2468.1	6.9
2471.84	4.9
2475.577	3.9
2479.311	1.9
2483.041	7.9
2486.768	6.9
2490.492	3.9
2494.213	3.9
2497.93	2.9
2501.644	2.9
2505.355	2.9
2509.062	1.9
2512.766	2.9
2516.467	1.9
2520.165	6.9
2523.859	5.9
2527.551	3.9
2531.239	1.9
2534.923	2.9
2538.605	0.9
2542.283	-0.1
2545.958	2.9
2549.63	5.9
2553.299	5.9
2556.964	7.9
2560.626	5.9
2564.285	-1.1
2567.941	1.9
2571.594	-1.1
2575.243	0.9
2578.89	4.9
2582.533	4.9
2586.173	6.9
2589.809	5.9
2593.443	5.9
2597.073	5.9
2600.701	-0.1
2604.325	0.9
2607.946	-0.1
2611.564	3.9
2615.178	4.9
2618.79	4.9
2622.398	5.9
2626.004	7.9
2629.606	6.9
2633.205	4.9
2636.801	6.9
2640.394	-0.1
2643.983	5.9
2647.57	4.9
2651.153	7.9
2654.734	5.9
2658.311	4.9
2661.885	5.9
2665.456	5.9
2669.025	6.9
2672.589	7.9
2676.151	5.9
2679.71	7.9
2683.266	3.9
2686.819	8.9
2690.368	7.9
2693.915	3.9
2697.458	3.9
2700.999	8.9
2704.536	9.9
2708.071	9.9
2711.602	5.9
2715.13	9.9
2718.656	8.9
2722.178	9.9
2725.697	8.9
2729.214	9.9
2732.727	8.9
2736.237	11.9
2739.744	10.9
2743.249	9.9
2746.75	6.9
2750.248	5.9
2753.743	5.9
2757.236	2.9
2760.725	1.9
2764.211	5.9
2767.695	4.9
2771.175	6.9
2774.652	8.9
2778.127	4.9
2781.598	2.9
2785.067	3.9
2788.532	1.9
2791.995	4.9
2795.455	6.9
2798.911	9.9
2802.365	11.9
2805.816	10.9
2809.264	8.9
2812.709	9.9
2816.151	7.9
2819.59	8.9
2823.026	8.9
2826.46	9.9
2829.89	21.9
2833.318	22.9
2836.742	30.9
2840.164	38.9
2843.583	42.9
2846.999	45.9
2850.412	43.9
2853.822	37.9
2857.229	37.9
2860.634	41.9
2864.035	45.9
2867.434	58.9
2870.83	69.9
2874.223	76.9
2877.613	82.9
2881	80.9
2884.385	84.9
2887.766	91.9
2891.145	93.9
2894.521	95.9
2897.894	82.9
2901.264	80.9
2904.631	78.9
2907.996	76.9
2911.358	75.9
2914.717	64.9
2918.073	58.9
2921.426	59.9
2924.777	55.9
2928.124	55.9
2931.469	50.9
2934.811	51.9
2938.15	42.9
2941.487	42.9
2944.821	36.9
2948.152	33.9
2951.48	38.9
2954.805	42.9
2958.128	48.9
2961.447	42.9
2964.765	41.9
2968.079	44.9
2971.39	35.9
2974.699	29.9
2978.005	24.9
2981.308	19.9
2984.609	14.9
2987.907	15.9
2991.202	15.9
2994.494	14.9
2997.784	12.9
3001.07	13.9
3004.355	6.9
3007.636	9.9
3010.915	6.9
3014.191	5.9
3017.464	5.9
3020.734	9.9
3024.002	6.9
3027.267	9.9
3030.53	5.9
3033.789	8.9
3037.046	1.9
3040.301	4.9
3043.552	5.9
3046.801	6.9
3050.048	7.9
3053.291	6.9
3056.532	4.9
3059.771	11.9
3063.006	6.9
3066.239	3.9
3069.469	8.9
3072.697	6.9
3075.922	1.9
3079.144	7.9
3082.364	7.9
3085.581	5.9
3088.795	9.9
3092.007	5.9
3095.216	8.9
3098.423	7.9
3101.627	2.9
3104.828	11.9
3108.026	5.9
3111.222	8.9
3114.416	9.9
3117.607	8.9
3120.795	7.9
3123.98	10.9
3127.163	13.9
3130.344	12.9
3133.521	9.9
3136.696	12.9
3139.869	11.9
3143.039	11.9
3146.206	13.9
3149.371	10.9
3152.533	13.9
3155.693	11.9
3158.85	11.9
3162.005	11.9
3165.157	9.9
3168.306	8.9
3171.453	9.9
3174.597	13.9
3177.739	10.9
3180.878	12.9
3184.014	8.9
3187.149	4.9
3190.28	11.9
3193.409	10.9
3196.536	8.9
3199.659	13.9
3202.781	11.9
3205.9	14.9
3209.016	11.9
3212.13	12.9
3215.241	10.9
3218.35	14.9
3221.456	8.9
3224.56	11.9
3227.661	11.9
3230.76	17.9
3233.856	13.9
3236.95	14.9
3240.041	7.9
3243.13	6.9
3246.216	6.9
3249.3	6.9
3252.382	10.9
3255.46	10.9
3258.537	11.9
3261.611	15.9
3264.682	10.9
3267.751	11.9
3270.818	4.9
3273.882	10.9
3276.943	8.9
3280.002	6.9
3283.059	8.9
3286.113	10.9
3289.165	5.9
3292.214	11.9
3295.261	9.9
3298.306	8.9
3301.348	9.9
3304.387	6.9
3307.425	8.9
3310.459	7.9
3313.492	5.9
3316.521	8.9
3319.549	7.9
3322.574	7.9
3325.597	4.9
3328.617	8.9
3331.635	8.9
3334.65	9.9
3337.663	8.9
3340.674	10.9
3343.682	8.9
3346.688	7.9
3349.691	4.9
3352.692	2.9
3355.691	1.9
3358.687	3.9
3361.681	8.9
3364.673	12.9
3367.662	7.9
3370.649	12.9
3373.633	5.9
3376.615	5.9
3379.595	-0.1
3382.572	2.9
3385.547	4.9
3388.52	4.9
3391.49	6.9
3394.458	10.9
3397.424	5.9
3400.387	3.9
3403.348	4.9
3406.307	-0.1
3409.263	4.9
3412.217	4.9
3415.168	2.9
3418.118	4.9
3421.065	7.9
3424.009	4.9
3426.951	7.9
3429.891	4.9
3432.829	1.9
3435.764	1.9
3438.697	-3.1
3441.628	3.9
3444.557	4.9
3447.483	6.9
3450.407	4.9
3453.328	9.9
3456.247	-3.1
3459.164	0.9
3462.079	0.9
3464.991	-1.1
3467.902	-2.1
3470.809	3.9
3473.715	2.9
3476.618	4.9
3479.519	-0.1
3482.418	3.9
3485.315	-0.1
3488.209	1.9
3491.101	0.9
3493.99	-3.1
3496.878	-2.1
3499.763	0.9
3502.646	2.9
3505.527	2.9
3508.405	2.9
3511.281	1.9
3514.155	0.9
3517.027	1.9
3519.897	-0.1
3522.764	-2.1
3525.629	-1.1
3528.492	-4.1
3531.352	-4.1
3534.211	-1.1
3537.067	-4.1
3539.921	-0.1
3542.773	0.9
3545.622	3.9
3548.469	-4.1
3551.315	-0.1
3554.157	-1.1
3556.998	-1.1
3559.837	-8.1
3562.673	-4.1
3565.507	-3.1
3568.339	-0.1
3571.169	-1.1
3573.996	0.9
3576.822	-1.1
3579.645	0.9
3582.466	-4.1
3585.285	-4.1
3588.101	-7.1
3590.916	-1.1
3593.728	-2.1
3596.538	-2.1
3599.346	-4.1
3602.152	0.9
3604.956	-3.1
3607.757	-1.1
3610.556	-3.1
3613.354	-5.1
3616.149	-7.1
3618.942	-3.1
3621.732	-2.1
3624.521	-1.1
3627.307	-3.1
3630.092	-3.1
3632.874	-4.1
3635.654	-2.1
3638.432	-8.1
3641.208	-4.1
3643.982	-3.1
3646.753	-3.1
3649.523	-7.1
3652.29	-1.1
3655.055	-5.1
3657.818	-3.1
3660.579	-0.1
3663.338	-3.1
3666.095	-1.1
3668.849	-0.1
3671.602	-2.1
3674.352	-0.1
3677.101	-6.1
3679.847	-7.1
3682.591	-3.1
3685.333	-5.1
3688.073	-2.1
3690.811	-0.1
3693.547	-5.1
3696.281	-5.1
3699.013	-4.1
3701.742	-7.1
3704.47	-7.1
3707.195	-6.1
3709.919	-5.1
3712.64	-4.1
3715.359	-2.1
3718.076	-3.1
3720.792	-3.1
3723.505	-3.1
3726.216	-7.1
3728.925	-5.1
3731.632	-7.1
3734.336	-7.1
3737.039	-1.1
3739.74	-2.1
3742.439	-3.1
3745.136	-2.1
3747.83	-2.1
3750.523	-5.1
3753.213	-7.1
3755.902	-5.1
3758.589	-6.1
3761.273	-3.1
3763.956	-2.1
3766.636	-4.1
3769.315	-5.1
3771.991	-3.1
3774.665	-1.1
3777.338	-1.1
3780.008	-3.1
3782.677	-6.1
3785.343	-6.1
3788.007	-4.1
3790.67	-2.1
3793.33	-4.1
3795.989	-5.1
3798.645	-5.1
3801.299	-3.1
3803.952	-3.1
3806.602	-5.1
3809.251	-3.1
3811.897	-6.1
3814.542	-4.1
3817.184	-5.1
3819.825	-4.1
3822.463	-8.1
3825.1	-3.1
3827.735	-4.1
3830.367	-2.1
3832.998	-5.1
3835.627	-2.1
3838.253	-6.1
3840.878	-6.1
3843.501	-3.1
3846.122	-4.1
3848.741	-5.1
3851.358	-0.1
3853.973	-2.1
3856.586	-4.1
3859.197	-2.1
3861.806	-6.1
3864.414	-8.1
3867.019	-6.1
3869.622	-9.1
3872.224	-4.1
3874.823	-1.1
3877.421	-1.1
3880.016	-2.1
3882.61	-0.1
3885.202	0.9
3887.792	-2.1
3890.38	-6.1
3892.966	-6.1
3895.55	-5.1
3898.132	-0.1
3900.713	-0.1
3903.291	-4.1
3905.868	-0.1
3908.442	-3.1
3911.015	-9.1
3913.586	-4.1
3916.155	-3.1
3918.722	-1.1
3921.287	-1.1
3923.85	-0.1
3926.411	-0.1
3928.971	-6.1
3931.528	-1.1
3934.084	-5.1
3936.638	-5.1
3939.19	-7.1
3941.74	-1.1
3944.288	-7.1
3946.834	-1.1
3949.378	-1.1
3951.921	-3.1
3954.462	-2.1
3957	-6.1
3959.537	-2.1
3962.072	-4.1
3964.606	-3.1
3967.137	-6.1
3969.667	-1.1
3972.194	-4.1
3974.72	-1.1
3977.244	-6.1
3979.766	-3.1
3982.286	-6.1
3984.805	-3.1
3987.321	-5.1
3989.836	-7.1
3992.349	-3.1
3994.86	-2.1
3997.369	-6.1
3999.877	-2.1
4002.382	-6.1
4004.886	-3.1
4007.388	-6.1
4009.888	-7.1
4012.386	-3.1
4014.883	-8.1
4017.377	-3.1
4019.87	-3.1
4022.361	-1.1
4024.85	-4.1
4027.338	-0.1
4029.823	-3.1
4032.307	-3.1
4034.789	-4.1
4037.269	-5.1
4039.747	-3.1
4042.224	-3.1
4044.699	-4.1
4047.172	-1.1
4049.643	-4.1
4052.112	-6.1
4054.58	-5.1
4057.046	-2.1
4059.51	-1.1
4061.972	-5.1
4064.432	-4.1
4066.891	-3.1
4069.348	-4.1
4071.803	-4.1
4074.256	-8.1
4076.708	-3.1
4079.158	-3.1
4081.606	-7.1
4084.052	0.9
4086.497	-4.1
4088.939	-2.1
4091.38	-6.1
4093.819	-2.1
4096.257	-4.1
4098.693	-8.1
4101.127	-7.1
4103.559	-1.1
4105.989	2.9
4108.418	2.9
4110.845	4.9
4113.27	3.9
4115.694	0.9
4118.115	2.9
4120.535	-4.1
4122.954	-3.1
4125.37	-5.1
4127.785	-7.1
4130.198	-5.1
4132.609	-4.1
4135.019	-5.1
4137.427	-5.1
4139.833	-6.1
4142.237	-7.1
