Data from 1_n=2_RamanShift_01.txt Node
Date: Mon Mar 19 12:25:23 IST 2018
User: aro
Spectrometer: QEPB0276
Trigger mode: 0
Integration Time (sec): 5.000000E0
Scans to average: 1
Electric dark correction enabled: true
Nonlinearity correction enabled: false
Boxcar width: 0
XAxis mode: Raman Shifts
Number of Pixels in Spectrum: 1044
>>>>>Begin Spectral Data<<<<<
160.701	0.2
166.742	-1.8
172.777	3.2
178.805	11.2
184.826	21.2
190.841	38.2
196.849	59.2
202.85	72.2
208.845	78.2
214.833	80.2
220.815	79.2
226.789	84.2
232.758	81.2
238.719	88.2
244.674	83.2
250.623	87.2
256.565	84.2
262.5	82.2
268.429	87.2
274.351	83.2
280.267	91.2
286.176	88.2
292.079	87.2
297.975	93.2
303.865	87.2
309.748	89.2
315.625	92.2
321.495	90.2
327.359	96.2
333.217	93.2
339.068	92.2
344.912	95.2
350.751	94.2
356.583	97.2
362.408	95.2
368.227	92.2
374.04	92.2
379.847	101.2
385.647	106.2
391.44	106.2
397.228	107.2
403.009	111.2
408.784	117.2
414.553	121.2
420.315	139.2
426.071	142.2
431.821	127.2
437.565	104.2
443.302	98.2
449.033	102.2
454.758	98.2
460.477	97.2
466.189	99.2
471.896	91.2
477.596	92.2
483.29	84.2
488.978	85.2
494.66	86.2
500.335	89.2
506.005	77.2
511.668	76.2
517.325	66.2
522.977	61.2
528.622	56.2
534.261	56.2
539.894	50.2
545.521	51.2
551.141	44.2
556.756	51.2
562.365	46.2
567.968	48.2
573.565	46.2
579.155	42.2
584.74	43.2
590.319	46.2
595.892	50.2
601.459	43.2
607.02	40.2
612.575	48.2
618.124	43.2
623.667	45.2
629.204	42.2
634.735	43.2
640.261	42.2
645.781	43.2
651.294	46.2
656.802	53.2
662.304	43.2
667.8	43.2
673.29	38.2
678.775	42.2
684.254	37.2
689.726	33.2
695.193	38.2
700.655	38.2
706.11	39.2
711.56	38.2
717.004	34.2
722.442	34.2
727.874	34.2
733.301	31.2
738.722	35.2
744.137	37.2
749.547	37.2
754.951	37.2
760.349	38.2
765.741	39.2
771.128	41.2
776.509	40.2
781.885	42.2
787.254	43.2
792.618	36.2
797.977	43.2
803.33	47.2
808.677	50.2
814.019	55.2
819.355	55.2
824.686	42.2
830.011	42.2
835.33	45.2
840.644	49.2
845.952	46.2
851.255	47.2
856.552	38.2
861.844	34.2
867.13	34.2
872.41	37.2
877.686	30.2
882.955	30.2
888.219	32.2
893.478	32.2
898.731	35.2
903.979	33.2
909.221	32.2
914.458	31.2
919.69	31.2
924.916	28.2
930.136	25.2
935.351	30.2
940.561	29.2
945.766	33.2
950.965	34.2
956.158	29.2
961.347	28.2
966.529	32.2
971.707	30.2
976.879	30.2
982.046	34.2
987.208	31.2
992.364	27.2
997.515	28.2
1002.66	34.2
1007.801	39.2
1012.936	28.2
1018.066	27.2
1023.19	28.2
1028.309	26.2
1033.423	29.2
1038.532	36.2
1043.636	33.2
1048.734	36.2
1053.827	31.2
1058.915	29.2
1063.998	26.2
1069.075	28.2
1074.147	25.2
1079.214	25.2
1084.276	26.2
1089.333	32.2
1094.385	29.2
1099.431	32.2
1104.472	29.2
1109.509	26.2
1114.54	25.2
1119.565	24.2
1124.586	24.2
1129.602	24.2
1134.613	26.2
1139.618	27.2
1144.619	29.2
1149.614	32.2
1154.604	37.2
1159.589	39.2
1164.57	34.2
1169.545	30.2
1174.515	30.2
1179.48	27.2
1184.44	26.2
1189.395	27.2
1194.345	29.2
1199.29	27.2
1204.23	25.2
1209.165	23.2
1214.095	26.2
1219.021	24.2
1223.941	29.2
1228.856	27.2
1233.766	29.2
1238.672	25.2
1243.572	29.2
1248.467	24.2
1253.358	21.2
1258.244	27.2
1263.124	21.2
1268	19.2
1272.871	24.2
1277.737	25.2
1282.599	22.2
1287.455	24.2
1292.306	23.2
1297.153	26.2
1301.995	23.2
1306.832	25.2
1311.664	21.2
1316.491	26.2
1321.314	21.2
1326.132	27.2
1330.945	31.2
1335.753	36.2
1340.556	32.2
1345.354	30.2
1350.148	28.2
1354.937	25.2
1359.722	26.2
1364.501	29.2
1369.276	26.2
1374.046	25.2
1378.811	19.2
1383.572	17.2
1388.327	21.2
1393.079	20.2
1397.825	20.2
1402.567	21.2
1407.304	20.2
1412.036	20.2
1416.764	17.2
1421.487	20.2
1426.205	19.2
1430.919	20.2
1435.628	23.2
1440.333	26.2
1445.032	29.2
1449.727	28.2
1454.418	36.2
1459.104	34.2
1463.785	37.2
1468.462	37.2
1473.134	29.2
1477.802	25.2
1482.465	19.2
1487.123	22.2
1491.777	22.2
1496.426	23.2
1501.071	20.2
1505.711	18.2
1510.347	14.2
1514.978	14.2
1519.604	16.2
1524.226	15.2
1528.844	18.2
1533.457	19.2
1538.065	18.2
1542.669	19.2
1547.269	16.2
1551.864	14.2
1556.454	13.2
1561.041	12.2
1565.622	10.2
1570.199	14.2
1574.772	14.2
1579.34	18.2
1583.904	21.2
1588.464	18.2
1593.019	11.2
1597.569	13.2
1602.115	14.2
1606.657	11.2
1611.195	12.2
1615.728	14.2
1620.256	13.2
1624.78	17.2
1629.3	16.2
1633.816	16.2
1638.327	19.2
1642.834	15.2
1647.336	13.2
1651.834	12.2
1656.328	12.2
1660.817	11.2
1665.302	14.2
1669.783	17.2
1674.259	13.2
1678.732	13.2
1683.199	11.2
1687.663	10.2
1692.122	10.2
1696.577	10.2
1701.028	13.2
1705.474	16.2
1709.917	16.2
1714.355	14.2
1718.788	12.2
1723.218	11.2
1727.643	8.2
1732.064	9.2
1736.481	14.2
1740.893	8.2
1745.301	15.2
1749.705	13.2
1754.105	15.2
1758.501	9.2
1762.893	12.2
1767.28	10.2
1771.663	10.2
1776.042	2.2
1780.417	7.2
1784.787	9.2
1789.154	11.2
1793.516	12.2
1797.874	15.2
1802.228	12.2
1806.578	9.2
1810.924	10.2
1815.266	9.2
1819.603	8.2
1823.937	11.2
1828.266	10.2
1832.591	9.2
1836.913	6.2
1841.23	12.2
1845.543	10.2
1849.852	9.2
1854.156	7.2
1858.457	7.2
1862.754	11.2
1867.047	7.2
1871.335	13.2
1875.62	7.2
1879.9	10.2
1884.177	8.2
1888.449	8.2
1892.718	6.2
1896.982	9.2
1901.243	9.2
1905.499	9.2
1909.752	5.2
1914	8.2
1918.245	5.2
1922.485	8.2
1926.722	9.2
1930.954	7.2
1935.183	10.2
1939.408	8.2
1943.628	10.2
1947.845	9.2
1952.058	12.2
1956.267	4.2
1960.472	3.2
1964.673	8.2
1968.87	6.2
1973.063	9.2
1977.252	7.2
1981.438	4.2
1985.619	3.2
1989.797	4.2
1993.971	3.2
1998.14	9.2
2002.306	8.2
2006.469	10.2
2010.627	7.2
2014.781	10.2
2018.932	6.2
2023.078	3.2
2027.221	3.2
2031.36	2.2
2035.495	8.2
2039.627	6.2
2043.754	6.2
2047.878	10.2
2051.998	9.2
2056.114	4.2
2060.226	13.2
2064.334	2.2
2068.439	5.2
2072.54	3.2
2076.637	7.2
2080.73	6.2
2084.82	8.2
2088.906	11.2
2092.988	7.2
2097.066	5.2
2101.14	6.2
2105.211	4.2
2109.278	5.2
2113.342	6.2
2117.401	5.2
2121.457	7.2
2125.509	7.2
2129.558	4.2
2133.602	7.2
2137.643	0.2
2141.681	3.2
2145.714	4.2
2149.744	7.2
2153.77	7.2
2157.793	12.2
2161.812	8.2
2165.827	9.2
2169.838	2.2
2173.846	1.2
2177.851	2.2
2181.851	3.2
2185.848	3.2
2189.841	8.2
2193.831	3.2
2197.817	8.2
2201.799	5.2
2205.778	0.2
2209.753	2.2
2213.725	0.2
2217.693	1.2
2221.657	-0.8
2225.618	5.2
2229.575	6.2
2233.529	9.2
2237.479	2.2
2241.425	1.2
2245.368	4.2
2249.307	0.2
2253.243	3.2
2257.175	-0.8
2261.104	7.2
2265.029	3.2
2268.95	3.2
2272.868	1.2
2276.783	1.2
2280.694	3.2
2284.601	1.2
2288.505	1.2
2292.405	3.2
2296.302	6.2
2300.195	6.2
2304.085	1.2
2307.971	3.2
2311.854	0.2
2315.734	0.2
2319.609	2.2
2323.482	1.2
2327.351	0.2
2331.216	6.2
2335.078	5.2
2338.937	4.2
2342.792	2.2
2346.643	-0.8
2350.492	2.2
2354.336	1.2
2358.178	1.2
2362.015	-0.8
2365.85	2.2
2369.681	3.2
2373.508	2.2
2377.333	4.2
2381.153	4.2
2384.971	2.2
2388.785	4.2
2392.595	3.2
2396.402	4.2
2400.206	2.2
2404.007	-0.8
2407.804	1.2
2411.597	5.2
2415.388	0.2
2419.174	2.2
2422.958	5.2
2426.738	0.2
2430.515	4.2
2434.289	-2.8
2438.059	-1.8
2441.825	0.2
2445.589	3.2
2449.349	2.2
2453.106	5.2
2456.859	4.2
2460.61	1.2
2464.356	5.2
2468.1	4.2
2471.84	-1.8
2475.577	1.2
2479.311	-0.8
2483.041	0.2
2486.768	1.2
2490.492	2.2
2494.213	1.2
2497.93	-0.8
2501.644	1.2
2505.355	-1.8
2509.062	-0.8
2512.766	-0.8
2516.467	0.2
2520.165	0.2
2523.859	2.2
2527.551	-1.8
2531.239	3.2
2534.923	-0.8
2538.605	-0.8
2542.283	-5.8
2545.958	3.2
2549.63	-0.8
2553.299	3.2
2556.964	3.2
2560.626	2.2
2564.285	-3.8
2567.941	2.2
2571.594	-5.8
2575.243	-2.8
2578.89	0.2
2582.533	-0.8
2586.173	1.2
2589.809	4.2
2593.443	3.2
2597.073	4.2
2600.701	-0.8
2604.325	-1.8
2607.946	-0.8
2611.564	2.2
2615.178	0.2
2618.79	1.2
2622.398	3.2
2626.004	3.2
2629.606	3.2
2633.205	0.2
2636.801	2.2
2640.394	3.2
2643.983	-0.8
2647.57	3.2
2651.153	3.2
2654.734	1.2
2658.311	-0.8
2661.885	1.2
2665.456	1.2
2669.025	4.2
2672.589	2.2
2676.151	3.2
2679.71	6.2
2683.266	2.2
2686.819	4.2
2690.368	-0.8
2693.915	2.2
2697.458	-0.8
2700.999	3.2
2704.536	1.2
2708.071	2.2
2711.602	2.2
2715.13	4.2
2718.656	-0.8
2722.178	0.2
2725.697	-2.8
2729.214	1.2
2732.727	2.2
2736.237	6.2
2739.744	3.2
2743.249	6.2
2746.75	3.2
2750.248	0.2
2753.743	0.2
2757.236	-1.8
2760.725	-1.8
2764.211	0.2
2767.695	0.2
2771.175	2.2
2774.652	4.2
2778.127	2.2
2781.598	3.2
2785.067	3.2
2788.532	0.2
2791.995	-1.8
2795.455	1.2
2798.911	-1.8
2802.365	0.2
2805.816	1.2
2809.264	3.2
2812.709	1.2
2816.151	2.2
2819.59	2.2
2823.026	-1.8
2826.46	1.2
2829.89	2.2
2833.318	1.2
2836.742	5.2
2840.164	11.2
2843.583	12.2
2846.999	9.2
2850.412	10.2
2853.822	6.2
2857.229	8.2
2860.634	4.2
2864.035	4.2
2867.434	12.2
2870.83	11.2
2874.223	17.2
2877.613	17.2
2881	14.2
2884.385	14.2
2887.766	20.2
2891.145	20.2
2894.521	19.2
2897.894	16.2
2901.264	13.2
2904.631	17.2
2907.996	20.2
2911.358	18.2
2914.717	13.2
2918.073	8.2
2921.426	11.2
2924.777	5.2
2928.124	9.2
2931.469	9.2
2934.811	9.2
2938.15	10.2
2941.487	9.2
2944.821	8.2
2948.152	5.2
2951.48	4.2
2954.805	3.2
2958.128	12.2
2961.447	5.2
2964.765	5.2
2968.079	9.2
2971.39	7.2
2974.699	7.2
2978.005	-0.8
2981.308	4.2
2984.609	-0.8
2987.907	3.2
2991.202	0.2
2994.494	0.2
2997.784	1.2
3001.07	2.2
3004.355	2.2
3007.636	3.2
3010.915	2.2
3014.191	1.2
3017.464	0.2
3020.734	3.2
3024.002	-0.8
3027.267	4.2
3030.53	-2.8
3033.789	2.2
3037.046	-0.8
3040.301	0.2
3043.552	1.2
3046.801	3.2
3050.048	1.2
3053.291	-0.8
3056.532	1.2
3059.771	1.2
3063.006	-0.8
3066.239	-3.8
3069.469	0.2
3072.697	-0.8
3075.922	1.2
3079.144	2.2
3082.364	1.2
3085.581	-1.8
3088.795	0.2
3092.007	-1.8
3095.216	-3.8
3098.423	-3.8
3101.627	-1.8
3104.828	2.2
3108.026	3.2
3111.222	1.2
3114.416	2.2
3117.607	2.2
3120.795	1.2
3123.98	1.2
3127.163	-0.8
3130.344	-0.8
3133.521	-0.8
3136.696	2.2
3139.869	4.2
3143.039	5.2
3146.206	0.2
3149.371	0.2
3152.533	1.2
3155.693	-2.8
3158.85	-2.8
3162.005	-2.8
3165.157	-2.8
3168.306	-0.8
3171.453	3.2
3174.597	4.2
3177.739	2.2
3180.878	3.2
3184.014	-0.8
3187.149	-3.8
3190.28	-4.8
3193.409	-2.8
3196.536	-0.8
3199.659	4.2
3202.781	3.2
3205.9	3.2
3209.016	3.2
3212.13	-0.8
3215.241	1.2
3218.35	0.2
3221.456	-0.8
3224.56	-1.8
3227.661	2.2
3230.76	5.2
3233.856	4.2
3236.95	7.2
3240.041	1.2
3243.13	-1.8
3246.216	-2.8
3249.3	-0.8
3252.382	3.2
3255.46	1.2
3258.537	4.2
3261.611	5.2
3264.682	1.2
3267.751	2.2
3270.818	-3.8
3273.882	-0.8
3276.943	-1.8
3280.002	-1.8
3283.059	-1.8
3286.113	3.2
3289.165	-0.8
3292.214	-0.8
3295.261	2.2
3298.306	-0.8
3301.348	-4.8
3304.387	-2.8
3307.425	-2.8
3310.459	0.2
3313.492	-2.8
3316.521	-0.8
3319.549	1.2
3322.574	-0.8
3325.597	1.2
3328.617	-4.8
3331.635	0.2
3334.65	-2.8
3337.663	1.2
3340.674	5.2
3343.682	0.2
3346.688	1.2
3349.691	5.2
3352.692	1.2
3355.691	-2.8
3358.687	-4.8
3361.681	0.2
3364.673	2.2
3367.662	-2.8
3370.649	2.2
3373.633	1.2
3376.615	0.2
3379.595	-1.8
3382.572	1.2
3385.547	-2.8
3388.52	-0.8
3391.49	-1.8
3394.458	0.2
3397.424	-3.8
3400.387	-0.8
3403.348	1.2
3406.307	-6.8
3409.263	-0.8
3412.217	-1.8
3415.168	-1.8
3418.118	-1.8
3421.065	2.2
3424.009	-0.8
3426.951	-1.8
3429.891	0.2
3432.829	0.2
3435.764	3.2
3438.697	-3.8
3441.628	-1.8
3444.557	0.2
3447.483	-2.8
3450.407	-0.8
3453.328	2.2
3456.247	-1.8
3459.164	-0.8
3462.079	0.2
3464.991	-1.8
3467.902	-1.8
3470.809	-0.8
3473.715	-0.8
3476.618	-0.8
3479.519	-3.8
3482.418	0.2
3485.315	-2.8
3488.209	1.2
3491.101	-0.8
3493.99	-1.8
3496.878	-0.8
3499.763	-0.8
3502.646	-2.8
3505.527	-3.8
3508.405	-2.8
3511.281	-0.8
3514.155	-0.8
3517.027	0.2
3519.897	-0.8
3522.764	0.2
3525.629	-4.8
3528.492	-5.8
3531.352	-4.8
3534.211	-3.8
3537.067	-6.8
3539.921	-3.8
3542.773	-2.8
3545.622	1.2
3548.469	-1.8
3551.315	0.2
3554.157	-2.8
3556.998	-0.8
3559.837	-8.8
3562.673	-4.8
3565.507	-1.8
3568.339	-1.8
3571.169	1.2
3573.996	-0.8
3576.822	-0.8
3579.645	-1.8
3582.466	-5.8
3585.285	-2.8
3588.101	-4.8
3590.916	-0.8
3593.728	0.2
3596.538	1.2
3599.346	1.2
3602.152	-1.8
3604.956	-5.8
3607.757	-2.8
3610.556	-5.8
3613.354	-0.8
3616.149	-2.8
3618.942	-0.8
3621.732	3.2
3624.521	1.2
3627.307	-0.8
3630.092	-2.8
3632.874	-3.8
3635.654	-3.8
3638.432	-3.8
3641.208	-4.8
3643.982	-0.8
3646.753	0.2
3649.523	-2.8
3652.29	-1.8
3655.055	-3.8
3657.818	-6.8
3660.579	0.2
3663.338	-4.8
3666.095	-0.8
3668.849	-1.8
3671.602	0.2
3674.352	3.2
3677.101	-0.8
3679.847	-2.8
3682.591	-0.8
3685.333	-3.8
3688.073	-2.8
3690.811	-1.8
3693.547	-0.8
3696.281	-0.8
3699.013	2.2
3701.742	0.2
3704.47	-6.8
3707.195	-3.8
3709.919	-6.8
3712.64	-4.8
3715.359	-4.8
3718.076	-2.8
3720.792	-0.8
3723.505	1.2
3726.216	-0.8
3728.925	-1.8
3731.632	-0.8
3734.336	-4.8
3737.039	-1.8
3739.74	-3.8
3742.439	-3.8
3745.136	0.2
3747.83	-0.8
3750.523	-1.8
3753.213	-3.8
3755.902	1.2
3758.589	-2.8
3761.273	-0.8
3763.956	-4.8
3766.636	-3.8
3769.315	-3.8
3771.991	-2.8
3774.665	-0.8
3777.338	0.2
3780.008	1.2
3782.677	-2.8
3785.343	-3.8
3788.007	-3.8
3790.67	-1.8
3793.33	-4.8
3795.989	-4.8
3798.645	-3.8
3801.299	-1.8
3803.952	-1.8
3806.602	1.2
3809.251	-1.8
3811.897	-3.8
3814.542	-3.8
3817.184	-6.8
3819.825	-6.8
3822.463	-4.8
3825.1	-3.8
3827.735	1.2
3830.367	2.2
3832.998	-1.8
3835.627	2.2
3838.253	-0.8
3840.878	-4.8
3843.501	-3.8
3846.122	-6.8
3848.741	-3.8
3851.358	-1.8
3853.973	1.2
3856.586	-2.8
3859.197	1.2
3861.806	-3.8
3864.414	-5.8
3867.019	-5.8
3869.622	-4.8
3872.224	-4.8
3874.823	-2.8
3877.421	2.2
3880.016	-1.8
3882.61	-0.8
3885.202	6.2
3887.792	1.2
3890.38	-2.8
3892.966	-2.8
3895.55	0.2
3898.132	-1.8
3900.713	-0.8
3903.291	0.2
3905.868	0.2
3908.442	-2.8
3911.015	-2.8
3913.586	-1.8
3916.155	-0.8
3918.722	-2.8
3921.287	-3.8
3923.85	-0.8
3926.411	-2.8
3928.971	-4.8
3931.528	-2.8
3934.084	-3.8
3936.638	1.2
3939.19	-2.8
3941.74	1.2
3944.288	-0.8
3946.834	-1.8
3949.378	0.2
3951.921	-5.8
3954.462	-3.8
3957	-2.8
3959.537	-0.8
3962.072	-0.8
3964.606	-1.8
3967.137	-2.8
3969.667	0.2
3972.194	-3.8
3974.72	-3.8
3977.244	-4.8
3979.766	-3.8
3982.286	-5.8
3984.805	-3.8
3987.321	-0.8
3989.836	-2.8
3992.349	0.2
3994.86	0.2
3997.369	-5.8
3999.877	-5.8
4002.382	-5.8
4004.886	-4.8
4007.388	0.2
4009.888	-4.8
4012.386	2.2
4014.883	-6.8
4017.377	-1.8
4019.87	-3.8
4022.361	-3.8
4024.85	-7.8
4027.338	-3.8
4029.823	-0.8
4032.307	1.2
4034.789	-0.8
4037.269	0.2
4039.747	1.2
4042.224	-4.8
4044.699	-5.8
4047.172	-3.8
4049.643	-6.8
4052.112	-6.8
4054.58	-2.8
4057.046	-0.8
4059.51	-1.8
4061.972	0.2
4064.432	-2.8
4066.891	-0.8
4069.348	-1.8
4071.803	-6.8
4074.256	-6.8
4076.708	-0.8
4079.158	2.2
4081.606	-4.8
4084.052	1.2
4086.497	-1.8
4088.939	0.2
4091.38	0.2
4093.819	-6.8
4096.257	-3.8
4098.693	-4.8
4101.127	-1.8
4103.559	1.2
4105.989	3.2
4108.418	5.2
4110.845	2.2
4113.27	4.2
4115.694	-0.8
4118.115	0.2
4120.535	-5.8
4122.954	-6.8
4125.37	-3.8
4127.785	-5.8
4130.198	-1.8
4132.609	1.2
4135.019	-0.8
4137.427	-0.8
4139.833	-4.8
4142.237	-6.8
