Data from Bsub_water_DIL108_B_1_RamanShift_1.txt Node
Date: Wed Feb 22 13:13:46 IST 2017
User: aro
Spectrometer: QEPB0276
Trigger mode: 0
Integration Time (sec): 5.000000E0
Scans to average: 1
Electric dark correction enabled: true
Nonlinearity correction enabled: false
Boxcar width: 0
XAxis mode: Raman Shifts
Number of Pixels in Spectrum: 1044
>>>>>Begin Spectral Data<<<<<
160.701	-34.62
166.742	5.38
172.777	105.38
178.805	402.38
184.826	1159.38
190.841	2393.38
196.849	3801.38
202.85	4719.38
208.845	4947.38
214.833	4802.38
220.815	4628.38
226.789	4460.38
232.758	4317.38
238.719	4192.38
244.674	4000.38
250.623	3783.38
256.565	3641.38
262.5	3454.38
268.429	3264.38
274.351	3136.38
280.267	2991.38
286.176	2878.38
292.079	2769.38
297.975	2682.38
303.865	2568.38
309.748	2484.38
315.625	2412.38
321.495	2371.38
327.359	2333.38
333.217	2309.38
339.068	2305.38
344.912	2281.38
350.751	2260.38
356.583	2267.38
362.408	2250.38
368.227	2272.38
374.04	2272.38
379.847	2292.38
385.647	2296.38
391.44	2312.38
397.228	2335.38
403.009	2326.38
408.784	2371.38
414.553	2348.38
420.315	2365.38
426.071	2344.38
431.821	2363.38
437.565	2366.38
443.302	2349.38
449.033	2337.38
454.758	2325.38
460.477	2317.38
466.189	2294.38
471.896	2310.38
477.596	2268.38
483.29	2269.38
488.978	2255.38
494.66	2256.38
500.335	2202.38
506.005	2186.38
511.668	2141.38
517.325	2086.38
522.977	2038.38
528.622	2022.38
534.261	2006.38
539.894	1964.38
545.521	1965.38
551.141	1937.38
556.756	1929.38
562.365	1895.38
567.968	1886.38
573.565	1893.38
579.155	1861.38
584.74	1843.38
590.319	1836.38
595.892	1847.38
601.459	1830.38
607.02	1802.38
612.575	1772.38
618.124	1743.38
623.667	1747.38
629.204	1713.38
634.735	1693.38
640.261	1668.38
645.781	1685.38
651.294	1684.38
656.802	1653.38
662.304	1632.38
667.8	1644.38
673.29	1630.38
678.775	1619.38
684.254	1621.38
689.726	1609.38
695.193	1603.38
700.655	1577.38
706.11	1572.38
711.56	1559.38
717.004	1534.38
722.442	1548.38
727.874	1525.38
733.301	1513.38
738.722	1491.38
744.137	1505.38
749.547	1499.38
754.951	1484.38
760.349	1478.38
765.741	1488.38
771.128	1476.38
776.509	1481.38
781.885	1473.38
787.254	1482.38
792.618	1455.38
797.977	1450.38
803.33	1427.38
808.677	1432.38
814.019	1402.38
819.355	1381.38
824.686	1361.38
830.011	1364.38
835.33	1334.38
840.644	1340.38
845.952	1332.38
851.255	1309.38
856.552	1307.38
861.844	1307.38
867.13	1297.38
872.41	1286.38
877.686	1277.38
882.955	1251.38
888.219	1222.38
893.478	1191.38
898.731	1172.38
903.979	1156.38
909.221	1128.38
914.458	1124.38
919.69	1109.38
924.916	1118.38
930.136	1089.38
935.351	1116.38
940.561	1110.38
945.766	1091.38
950.965	1088.38
956.158	1060.38
961.347	1050.38
966.529	1048.38
971.707	1028.38
976.879	995.38
982.046	991.38
987.208	978.38
992.364	994.38
997.515	997.38
1002.66	982.38
1007.801	997.38
1012.936	1012.38
1018.066	1022.38
1023.19	1010.38
1028.309	1030.38
1033.423	1018.38
1038.532	1014.38
1043.636	1012.38
1048.734	991.38
1053.827	993.38
1058.915	969.38
1063.998	956.38
1069.075	958.38
1074.147	956.38
1079.214	968.38
1084.276	968.38
1089.333	970.38
1094.385	990.38
1099.431	996.38
1104.472	991.38
1109.509	964.38
1114.54	965.38
1119.565	954.38
1124.586	936.38
1129.602	941.38
1134.613	931.38
1139.618	925.38
1144.619	918.38
1149.614	923.38
1154.604	919.38
1159.589	927.38
1164.57	939.38
1169.545	928.38
1174.515	935.38
1179.48	931.38
1184.44	924.38
1189.395	909.38
1194.345	905.38
1199.29	916.38
1204.23	918.38
1209.165	905.38
1214.095	929.38
1219.021	934.38
1223.941	932.38
1228.856	928.38
1233.766	927.38
1238.672	939.38
1243.572	936.38
1248.467	933.38
1253.358	927.38
1258.244	899.38
1263.124	887.38
1268	877.38
1272.871	875.38
1277.737	865.38
1282.599	862.38
1287.455	865.38
1292.306	859.38
1297.153	865.38
1301.995	861.38
1306.832	888.38
1311.664	880.38
1316.491	875.38
1321.314	857.38
1326.132	864.38
1330.945	852.38
1335.753	828.38
1340.556	808.38
1345.354	795.38
1350.148	778.38
1354.937	779.38
1359.722	776.38
1364.501	790.38
1369.276	794.38
1374.046	815.38
1378.811	811.38
1383.572	830.38
1388.327	815.38
1393.079	816.38
1397.825	789.38
1402.567	774.38
1407.304	764.38
1412.036	762.38
1416.764	766.38
1421.487	747.38
1426.205	748.38
1430.919	745.38
1435.628	764.38
1440.333	764.38
1445.032	773.38
1449.727	788.38
1454.418	776.38
1459.104	784.38
1463.785	775.38
1468.462	767.38
1473.134	746.38
1477.802	736.38
1482.465	744.38
1487.123	733.38
1491.777	748.38
1496.426	764.38
1501.071	768.38
1505.711	787.38
1510.347	795.38
1514.978	813.38
1519.604	825.38
1524.226	833.38
1528.844	837.38
1533.457	834.38
1538.065	835.38
1542.669	844.38
1547.269	847.38
1551.864	840.38
1556.454	843.38
1561.041	872.38
1565.622	854.38
1570.199	871.38
1574.772	886.38
1579.34	909.38
1583.904	935.38
1588.464	944.38
1593.019	962.38
1597.569	974.38
1602.115	992.38
1606.657	1016.38
1611.195	1036.38
1615.728	1048.38
1620.256	1053.38
1624.78	1088.38
1629.3	1086.38
1633.816	1129.38
1638.327	1140.38
1642.834	1161.38
1647.336	1177.38
1651.834	1148.38
1656.328	1145.38
1660.817	1152.38
1665.302	1111.38
1669.783	1099.38
1674.259	1078.38
1678.732	1013.38
1683.199	977.38
1687.663	923.38
1692.122	882.38
1696.577	854.38
1701.028	821.38
1705.474	813.38
1709.917	787.38
1714.355	762.38
1718.788	732.38
1723.218	708.38
1727.643	678.38
1732.064	652.38
1736.481	622.38
1740.893	608.38
1745.301	575.38
1749.705	562.38
1754.105	536.38
1758.501	514.38
1762.893	499.38
1767.28	484.38
1771.663	477.38
1776.042	465.38
1780.417	471.38
1784.787	466.38
1789.154	472.38
1793.516	470.38
1797.874	484.38
1802.228	481.38
1806.578	474.38
1810.924	469.38
1815.266	463.38
1819.603	459.38
1823.937	452.38
1828.266	428.38
1832.591	427.38
1836.913	426.38
1841.23	409.38
1845.543	421.38
1849.852	406.38
1854.156	408.38
1858.457	409.38
1862.754	410.38
1867.047	417.38
1871.335	418.38
1875.62	406.38
1879.9	414.38
1884.177	406.38
1888.449	413.38
1892.718	406.38
1896.982	402.38
1901.243	392.38
1905.499	408.38
1909.752	405.38
1914	400.38
1918.245	407.38
1922.485	416.38
1926.722	420.38
1930.954	436.38
1935.183	417.38
1939.408	423.38
1943.628	434.38
1947.845	428.38
1952.058	426.38
1956.267	423.38
1960.472	424.38
1964.673	421.38
1968.87	421.38
1973.063	417.38
1977.252	410.38
1981.438	420.38
1985.619	395.38
1989.797	400.38
1993.971	401.38
1998.14	406.38
2002.306	401.38
2006.469	405.38
2010.627	413.38
2014.781	415.38
2018.932	411.38
2023.078	413.38
2027.221	416.38
2031.36	411.38
2035.495	394.38
2039.627	407.38
2043.754	406.38
2047.878	407.38
2051.998	411.38
2056.114	416.38
2060.226	402.38
2064.334	418.38
2068.439	415.38
2072.54	426.38
2076.637	422.38
2080.73	425.38
2084.82	425.38
2088.906	433.38
2092.988	442.38
2097.066	435.38
2101.14	429.38
2105.211	429.38
2109.278	425.38
2113.342	423.38
2117.401	416.38
2121.457	411.38
2125.509	418.38
2129.558	423.38
2133.602	410.38
2137.643	409.38
2141.681	408.38
2145.714	404.38
2149.744	397.38
2153.77	403.38
2157.793	386.38
2161.812	389.38
2165.827	381.38
2169.838	381.38
2173.846	369.38
2177.851	365.38
2181.851	350.38
2185.848	350.38
2189.841	327.38
2193.831	343.38
2197.817	340.38
2201.799	341.38
2205.778	328.38
2209.753	325.38
2213.725	329.38
2217.693	328.38
2221.657	318.38
2225.618	314.38
2229.575	314.38
2233.529	313.38
2237.479	309.38
2241.425	313.38
2245.368	307.38
2249.307	302.38
2253.243	283.38
2257.175	289.38
2261.104	280.38
2265.029	266.38
2268.95	264.38
2272.868	265.38
2276.783	259.38
2280.694	250.38
2284.601	253.38
2288.505	249.38
2292.405	238.38
2296.302	248.38
2300.195	237.38
2304.085	234.38
2307.971	224.38
2311.854	226.38
2315.734	219.38
2319.609	205.38
2323.482	207.38
2327.351	202.38
2331.216	200.38
2335.078	206.38
2338.937	195.38
2342.792	200.38
2346.643	192.38
2350.492	190.38
2354.336	188.38
2358.178	196.38
2362.015	185.38
2365.85	192.38
2369.681	188.38
2373.508	180.38
2377.333	179.38
2381.153	186.38
2384.971	180.38
2388.785	182.38
2392.595	184.38
2396.402	179.38
2400.206	170.38
2404.007	170.38
2407.804	169.38
2411.597	165.38
2415.388	162.38
2419.174	174.38
2422.958	158.38
2426.738	165.38
2430.515	158.38
2434.289	160.38
2438.059	160.38
2441.825	158.38
2445.589	157.38
2449.349	152.38
2453.106	148.38
2456.859	158.38
2460.61	150.38
2464.356	146.38
2468.1	147.38
2471.84	147.38
2475.577	138.38
2479.311	140.38
2483.041	135.38
2486.768	134.38
2490.492	138.38
2494.213	150.38
2497.93	144.38
2501.644	145.38
2505.355	140.38
2509.062	142.38
2512.766	135.38
2516.467	131.38
2520.165	138.38
2523.859	138.38
2527.551	133.38
2531.239	130.38
2534.923	129.38
2538.605	125.38
2542.283	129.38
2545.958	124.38
2549.63	126.38
2553.299	123.38
2556.964	123.38
2560.626	124.38
2564.285	120.38
2567.941	121.38
2571.594	123.38
2575.243	113.38
2578.89	113.38
2582.533	115.38
2586.173	116.38
2589.809	105.38
2593.443	112.38
2597.073	103.38
2600.701	102.38
2604.325	110.38
2607.946	99.38
2611.564	95.38
2615.178	107.38
2618.79	104.38
2622.398	105.38
2626.004	111.38
2629.606	101.38
2633.205	93.38
2636.801	99.38
2640.394	102.38
2643.983	96.38
2647.57	93.38
2651.153	91.38
2654.734	88.38
2658.311	92.38
2661.885	88.38
2665.456	85.38
2669.025	88.38
2672.589	86.38
2676.151	94.38
2679.71	83.38
2683.266	83.38
2686.819	78.38
2690.368	82.38
2693.915	79.38
2697.458	74.38
2700.999	84.38
2704.536	71.38
2708.071	70.38
2711.602	68.38
2715.13	63.38
2718.656	65.38
2722.178	71.38
2725.697	69.38
2729.214	66.38
2732.727	79.38
2736.237	74.38
2739.744	74.38
2743.249	78.38
2746.75	80.38
2750.248	78.38
2753.743	81.38
2757.236	75.38
2760.725	85.38
2764.211	83.38
2767.695	83.38
2771.175	86.38
2774.652	90.38
2778.127	83.38
2781.598	79.38
2785.067	79.38
2788.532	87.38
2791.995	80.38
2795.455	83.38
2798.911	96.38
2802.365	92.38
2805.816	91.38
2809.264	90.38
2812.709	94.38
2816.151	98.38
2819.59	103.38
2823.026	98.38
2826.46	97.38
2829.89	102.38
2833.318	97.38
2836.742	100.38
2840.164	100.38
2843.583	109.38
2846.999	118.38
2850.412	117.38
2853.822	123.38
2857.229	124.38
2860.634	125.38
2864.035	125.38
2867.434	133.38
2870.83	138.38
2874.223	134.38
2877.613	144.38
2881	141.38
2884.385	144.38
2887.766	151.38
2891.145	153.38
2894.521	152.38
2897.894	153.38
2901.264	160.38
2904.631	166.38
2907.996	169.38
2911.358	171.38
2914.717	175.38
2918.073	179.38
2921.426	181.38
2924.777	196.38
2928.124	192.38
2931.469	201.38
2934.811	200.38
2938.15	202.38
2941.487	215.38
2944.821	229.38
2948.152	236.38
2951.48	234.38
2954.805	241.38
2958.128	247.38
2961.447	253.38
2964.765	267.38
2968.079	271.38
2971.39	278.38
2974.699	295.38
2978.005	300.38
2981.308	306.38
2984.609	328.38
2987.907	340.38
2991.202	355.38
2994.494	370.38
2997.784	381.38
3001.07	386.38
3004.355	397.38
3007.636	414.38
3010.915	433.38
3014.191	441.38
3017.464	445.38
3020.734	458.38
3024.002	483.38
3027.267	482.38
3030.53	486.38
3033.789	500.38
3037.046	508.38
3040.301	527.38
3043.552	548.38
3046.801	556.38
3050.048	580.38
3053.291	595.38
3056.532	601.38
3059.771	637.38
3063.006	663.38
3066.239	677.38
3069.469	720.38
3072.697	716.38
3075.922	745.38
3079.144	762.38
3082.364	791.38
3085.581	798.38
3088.795	829.38
3092.007	838.38
3095.216	870.38
3098.423	883.38
3101.627	915.38
3104.828	952.38
3108.026	960.38
3111.222	982.38
3114.416	1019.38
3117.607	1035.38
3120.795	1074.38
3123.98	1078.38
3127.163	1122.38
3130.344	1135.38
3133.521	1167.38
3136.696	1196.38
3139.869	1222.38
3143.039	1237.38
3146.206	1260.38
3149.371	1271.38
3152.533	1279.38
3155.693	1302.38
3158.85	1309.38
3162.005	1315.38
3165.157	1344.38
3168.306	1325.38
3171.453	1329.38
3174.597	1345.38
3177.739	1357.38
3180.878	1348.38
3184.014	1368.38
3187.149	1348.38
3190.28	1362.38
3193.409	1363.38
3196.536	1366.38
3199.659	1364.38
3202.781	1388.38
3205.9	1366.38
3209.016	1375.38
3212.13	1370.38
3215.241	1376.38
3218.35	1371.38
3221.456	1351.38
3224.56	1356.38
3227.661	1323.38
3230.76	1327.38
3233.856	1314.38
3236.95	1305.38
3240.041	1295.38
3243.13	1282.38
3246.216	1276.38
3249.3	1269.38
3252.382	1269.38
3255.46	1265.38
3258.537	1261.38
3261.611	1261.38
3264.682	1255.38
3267.751	1241.38
3270.818	1234.38
3273.882	1233.38
3276.943	1219.38
3280.002	1221.38
3283.059	1201.38
3286.113	1180.38
3289.165	1178.38
3292.214	1155.38
3295.261	1133.38
3298.306	1108.38
3301.348	1102.38
3304.387	1079.38
3307.425	1068.38
3310.459	1062.38
3313.492	1055.38
3316.521	1030.38
3319.549	1021.38
3322.574	1015.38
3325.597	994.38
3328.617	986.38
3331.635	975.38
3334.65	973.38
3337.663	966.38
3340.674	964.38
3343.682	961.38
3346.688	941.38
3349.691	948.38
3352.692	952.38
3355.691	945.38
3358.687	945.38
3361.681	922.38
3364.673	912.38
3367.662	893.38
3370.649	896.38
3373.633	879.38
3376.615	872.38
3379.595	847.38
3382.572	849.38
3385.547	830.38
3388.52	822.38
3391.49	816.38
3394.458	795.38
3397.424	799.38
3400.387	785.38
3403.348	776.38
3406.307	764.38
3409.263	768.38
3412.217	763.38
3415.168	746.38
3418.118	725.38
3421.065	718.38
3424.009	727.38
3426.951	707.38
3429.891	699.38
3432.829	680.38
3435.764	668.38
3438.697	650.38
3441.628	632.38
3444.557	623.38
3447.483	617.38
3450.407	598.38
3453.328	577.38
3456.247	569.38
3459.164	554.38
3462.079	536.38
3464.991	510.38
3467.902	508.38
3470.809	481.38
3473.715	462.38
3476.618	454.38
3479.519	434.38
3482.418	434.38
3485.315	416.38
3488.209	398.38
3491.101	401.38
3493.99	388.38
3496.878	381.38
3499.763	366.38
3502.646	352.38
3505.527	336.38
3508.405	322.38
3511.281	312.38
3514.155	309.38
3517.027	290.38
3519.897	278.38
3522.764	265.38
3525.629	252.38
3528.492	244.38
3531.352	228.38
3534.211	211.38
3537.067	197.38
3539.921	188.38
3542.773	184.38
3545.622	167.38
3548.469	160.38
3551.315	143.38
3554.157	145.38
3556.998	128.38
3559.837	123.38
3562.673	112.38
3565.507	111.38
3568.339	94.38
3571.169	100.38
3573.996	89.38
3576.822	80.38
3579.645	72.38
3582.466	72.38
3585.285	69.38
3588.101	60.38
3590.916	56.38
3593.728	44.38
3596.538	37.38
3599.346	33.38
3602.152	29.38
3604.956	24.38
3607.757	18.38
3610.556	19.38
3613.354	13.38
3616.149	10.38
3618.942	8.38
3621.732	0.38
3624.521	-4.62
3627.307	-8.62
3630.092	-11.62
3632.874	-13.62
3635.654	-21.62
3638.432	-21.62
3641.208	-27.62
3643.982	-27.62
3646.753	-32.62
3649.523	-28.62
3652.29	-40.62
3655.055	-42.62
3657.818	-46.62
3660.579	-49.62
3663.338	-50.62
3666.095	-46.62
3668.849	-55.62
3671.602	-56.62
3674.352	-59.62
3677.101	-64.62
3679.847	-66.62
3682.591	-69.62
3685.333	-73.62
3688.073	-73.62
3690.811	-81.62
3693.547	-75.62
3696.281	-78.62
3699.013	-79.62
3701.742	-76.62
3704.47	-75.62
3707.195	-83.62
3709.919	-86.62
3712.64	-84.62
3715.359	-85.62
3718.076	-87.62
3720.792	-90.62
3723.505	-94.62
3726.216	-87.62
3728.925	-92.62
3731.632	-95.62
3734.336	-101.62
3737.039	-96.62
3739.74	-97.62
3742.439	-99.62
3745.136	-96.62
3747.83	-97.62
3750.523	-98.62
3753.213	-99.62
3755.902	-104.62
3758.589	-102.62
3761.273	-97.62
3763.956	-101.62
3766.636	-105.62
3769.315	-102.62
3771.991	-104.62
3774.665	-103.62
3777.338	-107.62
3780.008	-108.62
3782.677	-106.62
3785.343	-110.62
3788.007	-105.62
3790.67	-107.62
3793.33	-107.62
3795.989	-107.62
3798.645	-104.62
3801.299	-107.62
3803.952	-109.62
3806.602	-104.62
3809.251	-105.62
3811.897	-108.62
3814.542	-111.62
3817.184	-108.62
3819.825	-105.62
3822.463	-108.62
3825.1	-106.62
3827.735	-111.62
3830.367	-109.62
3832.998	-112.62
3835.627	-112.62
3838.253	-113.62
3840.878	-112.62
3843.501	-111.62
3846.122	-112.62
3848.741	-111.62
3851.358	-111.62
3853.973	-108.62
3856.586	-114.62
3859.197	-110.62
3861.806	-112.62
3864.414	-112.62
3867.019	-112.62
3869.622	-111.62
3872.224	-112.62
3874.823	-113.62
3877.421	-107.62
3880.016	-107.62
3882.61	-107.62
3885.202	-103.62
3887.792	-106.62
3890.38	-109.62
3892.966	-114.62
3895.55	-111.62
3898.132	-109.62
3900.713	-114.62
3903.291	-113.62
3905.868	-113.62
3908.442	-111.62
3911.015	-115.62
3913.586	-117.62
3916.155	-117.62
3918.722	-117.62
3921.287	-117.62
3923.85	-116.62
3926.411	-117.62
3928.971	-113.62
3931.528	-112.62
3934.084	-116.62
3936.638	-114.62
3939.19	-115.62
3941.74	-113.62
3944.288	-116.62
3946.834	-114.62
3949.378	-118.62
3951.921	-117.62
3954.462	-118.62
3957	-116.62
3959.537	-115.62
3962.072	-114.62
3964.606	-117.62
3967.137	-110.62
3969.667	-111.62
3972.194	-114.62
3974.72	-116.62
3977.244	-113.62
3979.766	-112.62
3982.286	-112.62
3984.805	-114.62
3987.321	-112.62
3989.836	-119.62
3992.349	-115.62
3994.86	-118.62
3997.369	-119.62
3999.877	-119.62
4002.382	-117.62
4004.886	-111.62
4007.388	-113.62
4009.888	-116.62
4012.386	-111.62
4014.883	-111.62
4017.377	-112.62
4019.87	-118.62
4022.361	-115.62
4024.85	-116.62
4027.338	-114.62
4029.823	-116.62
4032.307	-113.62
4034.789	-114.62
4037.269	-113.62
4039.747	-113.62
4042.224	-117.62
4044.699	-118.62
4047.172	-115.62
4049.643	-117.62
4052.112	-120.62
4054.58	-116.62
4057.046	-113.62
4059.51	-116.62
4061.972	-109.62
4064.432	-115.62
4066.891	-115.62
4069.348	-113.62
4071.803	-116.62
4074.256	-118.62
4076.708	-118.62
4079.158	-117.62
4081.606	-119.62
4084.052	-118.62
4086.497	-115.62
4088.939	-111.62
4091.38	-111.62
4093.819	-116.62
4096.257	-119.62
4098.693	-120.62
4101.127	-118.62
4103.559	-118.62
4105.989	-72.62
4108.418	-70.62
4110.845	-70.62
4113.27	-61.62
4115.694	-55.62
4118.115	-47.62
4120.535	-114.62
4122.954	-112.62
4125.37	-112.62
4127.785	-116.62
4130.198	-115.62
4132.609	-116.62
4135.019	-120.62
4137.427	-121.62
4139.833	-118.62
4142.237	-117.62
