Data from I0.2_T15s_Bsub_water_1-10^4_3_RamanShift_1.txt Node
Date: Mon Mar 13 12:39:25 IST 2017
User: aro
Spectrometer: QEPB0276
Trigger mode: 0
Integration Time (sec): 1.500000E1
Scans to average: 1
Electric dark correction enabled: true
Nonlinearity correction enabled: false
Boxcar width: 0
XAxis mode: Raman Shifts
Number of Pixels in Spectrum: 1044
>>>>>Begin Spectral Data<<<<<
160.701	4.25
166.742	-2.75
172.777	-0.75
178.805	6.25
184.826	2.25
190.841	6.25
196.849	8.25
202.85	8.25
208.845	2.25
214.833	9.25
220.815	9.25
226.789	11.25
232.758	8.25
238.719	5.25
244.674	2.25
250.623	7.25
256.565	5.25
262.5	4.25
268.429	6.25
274.351	6.25
280.267	4.25
286.176	7.25
292.079	8.25
297.975	8.25
303.865	4.25
309.748	3.25
315.625	7.25
321.495	10.25
327.359	3.25
333.217	13.25
339.068	8.25
344.912	7.25
350.751	4.25
356.583	7.25
362.408	-0.75
368.227	2.25
374.04	5.25
379.847	1.25
385.647	4.25
391.44	4.25
397.228	0.25
403.009	3.25
408.784	1.25
414.553	4.25
420.315	0.25
426.071	1.25
431.821	3.25
437.565	2.25
443.302	3.25
449.033	9.25
454.758	5.25
460.477	7.25
466.189	6.25
471.896	9.25
477.596	4.25
483.29	9.25
488.978	5.25
494.66	7.25
500.335	6.25
506.005	6.25
511.668	4.25
517.325	5.25
522.977	5.25
528.622	4.25
534.261	1.25
539.894	3.25
545.521	4.25
551.141	1.25
556.756	4.25
562.365	5.25
567.968	5.25
573.565	1.25
579.155	2.25
584.74	4.25
590.319	5.25
595.892	3.25
601.459	9.25
607.02	5.25
612.575	6.25
618.124	4.25
623.667	4.25
629.204	8.25
634.735	3.25
640.261	3.25
645.781	4.25
651.294	4.25
656.802	5.25
662.304	0.25
667.8	4.25
673.29	4.25
678.775	2.25
684.254	6.25
689.726	3.25
695.193	3.25
700.655	2.25
706.11	3.25
711.56	5.25
717.004	3.25
722.442	4.25
727.874	4.25
733.301	7.25
738.722	6.25
744.137	0.25
749.547	2.25
754.951	4.25
760.349	0.25
765.741	1.25
771.128	1.25
776.509	-1.75
781.885	4.25
787.254	3.25
792.618	0.25
797.977	1.25
803.33	6.25
808.677	5.25
814.019	5.25
819.355	5.25
824.686	4.25
830.011	1.25
835.33	7.25
840.644	3.25
845.952	0.25
851.255	4.25
856.552	4.25
861.844	2.25
867.13	1.25
872.41	4.25
877.686	4.25
882.955	3.25
888.219	0.25
893.478	4.25
898.731	2.25
903.979	5.25
909.221	5.25
914.458	2.25
919.69	7.25
924.916	2.25
930.136	4.25
935.351	1.25
940.561	2.25
945.766	2.25
950.965	4.25
956.158	4.25
961.347	2.25
966.529	4.25
971.707	2.25
976.879	-0.75
982.046	0.25
987.208	7.25
992.364	3.25
997.515	7.25
1002.66	2.25
1007.801	1.25
1012.936	3.25
1018.066	4.25
1023.19	1.25
1028.309	3.25
1033.423	8.25
1038.532	-2.75
1043.636	-1.75
1048.734	1.25
1053.827	-2.75
1058.915	1.25
1063.998	4.25
1069.075	4.25
1074.147	4.25
1079.214	7.25
1084.276	2.25
1089.333	7.25
1094.385	6.25
1099.431	10.25
1104.472	8.25
1109.509	5.25
1114.54	6.25
1119.565	9.25
1124.586	5.25
1129.602	4.25
1134.613	-0.75
1139.618	-0.75
1144.619	4.25
1149.614	4.25
1154.604	3.25
1159.589	-0.75
1164.57	0.25
1169.545	-0.75
1174.515	2.25
1179.48	-0.75
1184.44	-0.75
1189.395	1.25
1194.345	5.25
1199.29	4.25
1204.23	-0.75
1209.165	5.25
1214.095	7.25
1219.021	6.25
1223.941	3.25
1228.856	6.25
1233.766	3.25
1238.672	5.25
1243.572	7.25
1248.467	3.25
1253.358	3.25
1258.244	3.25
1263.124	5.25
1268	-0.75
1272.871	5.25
1277.737	1.25
1282.599	3.25
1287.455	2.25
1292.306	0.25
1297.153	-2.75
1301.995	1.25
1306.832	-3.75
1311.664	6.25
1316.491	1.25
1321.314	4.25
1326.132	4.25
1330.945	-1.75
1335.753	6.25
1340.556	7.25
1345.354	4.25
1350.148	6.25
1354.937	8.25
1359.722	5.25
1364.501	3.25
1369.276	1.25
1374.046	5.25
1378.811	4.25
1383.572	7.25
1388.327	3.25
1393.079	2.25
1397.825	4.25
1402.567	9.25
1407.304	-2.75
1412.036	0.25
1416.764	6.25
1421.487	0.25
1426.205	0.25
1430.919	2.25
1435.628	2.25
1440.333	4.25
1445.032	3.25
1449.727	7.25
1454.418	1.25
1459.104	10.25
1463.785	9.25
1468.462	8.25
1473.134	6.25
1477.802	10.25
1482.465	5.25
1487.123	6.25
1491.777	0.25
1496.426	9.25
1501.071	3.25
1505.711	3.25
1510.347	5.25
1514.978	-1.75
1519.604	2.25
1524.226	2.25
1528.844	0.25
1533.457	0.25
1538.065	2.25
1542.669	-1.75
1547.269	3.25
1551.864	1.25
1556.454	3.25
1561.041	7.25
1565.622	4.25
1570.199	7.25
1574.772	7.25
1579.34	2.25
1583.904	7.25
1588.464	3.25
1593.019	4.25
1597.569	7.25
1602.115	4.25
1606.657	8.25
1611.195	2.25
1615.728	6.25
1620.256	4.25
1624.78	2.25
1629.3	1.25
1633.816	1.25
1638.327	2.25
1642.834	1.25
1647.336	0.25
1651.834	3.25
1656.328	3.25
1660.817	4.25
1665.302	4.25
1669.783	5.25
1674.259	4.25
1678.732	6.25
1683.199	6.25
1687.663	5.25
1692.122	1.25
1696.577	8.25
1701.028	4.25
1705.474	3.25
1709.917	5.25
1714.355	-0.75
1718.788	5.25
1723.218	3.25
1727.643	5.25
1732.064	2.25
1736.481	1.25
1740.893	4.25
1745.301	-1.75
1749.705	2.25
1754.105	1.25
1758.501	2.25
1762.893	0.25
1767.28	2.25
1771.663	-0.75
1776.042	0.25
1780.417	5.25
1784.787	3.25
1789.154	4.25
1793.516	6.25
1797.874	0.25
1802.228	5.25
1806.578	4.25
1810.924	2.25
1815.266	-5.75
1819.603	5.25
1823.937	0.25
1828.266	-0.75
1832.591	0.25
1836.913	7.25
1841.23	0.25
1845.543	3.25
1849.852	9.25
1854.156	3.25
1858.457	4.25
1862.754	4.25
1867.047	5.25
1871.335	8.25
1875.62	1.25
1879.9	8.25
1884.177	0.25
1888.449	3.25
1892.718	3.25
1896.982	-0.75
1901.243	7.25
1905.499	-1.75
1909.752	-1.75
1914	-0.75
1918.245	0.25
1922.485	-1.75
1926.722	3.25
1930.954	3.25
1935.183	3.25
1939.408	5.25
1943.628	5.25
1947.845	4.25
1952.058	7.25
1956.267	5.25
1960.472	1.25
1964.673	2.25
1968.87	3.25
1973.063	4.25
1977.252	4.25
1981.438	1.25
1985.619	5.25
1989.797	-0.75
1993.971	-0.75
1998.14	0.25
2002.306	3.25
2006.469	1.25
2010.627	-0.75
2014.781	3.25
2018.932	-0.75
2023.078	3.25
2027.221	7.25
2031.36	1.25
2035.495	5.25
2039.627	3.25
2043.754	6.25
2047.878	7.25
2051.998	5.25
2056.114	11.25
2060.226	4.25
2064.334	4.25
2068.439	8.25
2072.54	3.25
2076.637	-1.75
2080.73	5.25
2084.82	-2.75
2088.906	-2.75
2092.988	0.25
2097.066	-0.75
2101.14	0.25
2105.211	0.25
2109.278	-2.75
2113.342	-0.75
2117.401	1.25
2121.457	0.25
2125.509	2.25
2129.558	-0.75
2133.602	3.25
2137.643	3.25
2141.681	7.25
2145.714	9.25
2149.744	4.25
2153.77	4.25
2157.793	6.25
2161.812	6.25
2165.827	5.25
2169.838	-0.75
2173.846	3.25
2177.851	5.25
2181.851	2.25
2185.848	-0.75
2189.841	3.25
2193.831	-1.75
2197.817	4.25
2201.799	-2.75
2205.778	0.25
2209.753	5.25
2213.725	2.25
2217.693	4.25
2221.657	2.25
2225.618	1.25
2229.575	-0.75
2233.529	3.25
2237.479	1.25
2241.425	2.25
2245.368	-0.75
2249.307	7.25
2253.243	-3.75
2257.175	7.25
2261.104	2.25
2265.029	2.25
2268.95	3.25
2272.868	0.25
2276.783	3.25
2280.694	4.25
2284.601	4.25
2288.505	6.25
2292.405	1.25
2296.302	5.25
2300.195	6.25
2304.085	-1.75
2307.971	4.25
2311.854	4.25
2315.734	-2.75
2319.609	6.25
2323.482	5.25
2327.351	0.25
2331.216	5.25
2335.078	-3.75
2338.937	1.25
2342.792	2.25
2346.643	-2.75
2350.492	-1.75
2354.336	3.25
2358.178	6.25
2362.015	5.25
2365.85	0.25
2369.681	2.25
2373.508	5.25
2377.333	0.25
2381.153	0.25
2384.971	1.25
2388.785	0.25
2392.595	0.25
2396.402	4.25
2400.206	2.25
2404.007	3.25
2407.804	5.25
2411.597	5.25
2415.388	5.25
2419.174	9.25
2422.958	5.25
2426.738	0.25
2430.515	6.25
2434.289	3.25
2438.059	2.25
2441.825	1.25
2445.589	-0.75
2449.349	2.25
2453.106	2.25
2456.859	0.25
2460.61	2.25
2464.356	-0.75
2468.1	4.25
2471.84	-0.75
2475.577	5.25
2479.311	4.25
2483.041	6.25
2486.768	4.25
2490.492	6.25
2494.213	3.25
2497.93	8.25
2501.644	4.25
2505.355	8.25
2509.062	9.25
2512.766	6.25
2516.467	10.25
2520.165	8.25
2523.859	5.25
2527.551	2.25
2531.239	1.25
2534.923	1.25
2538.605	7.25
2542.283	-0.75
2545.958	-1.75
2549.63	1.25
2553.299	3.25
2556.964	-1.75
2560.626	-2.75
2564.285	-0.75
2567.941	2.25
2571.594	-0.75
2575.243	3.25
2578.89	-1.75
2582.533	5.25
2586.173	5.25
2589.809	6.25
2593.443	10.25
2597.073	5.25
2600.701	6.25
2604.325	5.25
2607.946	5.25
2611.564	6.25
2615.178	2.25
2618.79	3.25
2622.398	3.25
2626.004	9.25
2629.606	3.25
2633.205	2.25
2636.801	4.25
2640.394	1.25
2643.983	2.25
2647.57	-0.75
2651.153	2.25
2654.734	-0.75
2658.311	0.25
2661.885	0.25
2665.456	1.25
2669.025	-3.75
2672.589	-0.75
2676.151	1.25
2679.71	0.25
2683.266	4.25
2686.819	1.25
2690.368	2.25
2693.915	0.25
2697.458	4.25
2700.999	3.25
2704.536	4.25
2708.071	0.25
2711.602	1.25
2715.13	4.25
2718.656	1.25
2722.178	-1.75
2725.697	4.25
2729.214	1.25
2732.727	3.25
2736.237	0.25
2739.744	3.25
2743.249	-0.75
2746.75	1.25
2750.248	-2.75
2753.743	3.25
2757.236	3.25
2760.725	5.25
2764.211	0.25
2767.695	3.25
2771.175	-1.75
2774.652	1.25
2778.127	3.25
2781.598	-0.75
2785.067	5.25
2788.532	1.25
2791.995	-0.75
2795.455	2.25
2798.911	1.25
2802.365	7.25
2805.816	2.25
2809.264	3.25
2812.709	0.25
2816.151	5.25
2819.59	5.25
2823.026	6.25
2826.46	1.25
2829.89	1.25
2833.318	7.25
2836.742	0.25
2840.164	6.25
2843.583	1.25
2846.999	3.25
2850.412	1.25
2853.822	4.25
2857.229	5.25
2860.634	4.25
2864.035	4.25
2867.434	0.25
2870.83	5.25
2874.223	3.25
2877.613	4.25
2881	1.25
2884.385	8.25
2887.766	4.25
2891.145	3.25
2894.521	2.25
2897.894	1.25
2901.264	-1.75
2904.631	2.25
2907.996	5.25
2911.358	-0.75
2914.717	2.25
2918.073	6.25
2921.426	-1.75
2924.777	3.25
2928.124	3.25
2931.469	6.25
2934.811	6.25
2938.15	7.25
2941.487	3.25
2944.821	0.25
2948.152	1.25
2951.48	-1.75
2954.805	2.25
2958.128	3.25
2961.447	-1.75
2964.765	1.25
2968.079	1.25
2971.39	2.25
2974.699	6.25
2978.005	5.25
2981.308	5.25
2984.609	2.25
2987.907	3.25
2991.202	-0.75
2994.494	5.25
2997.784	1.25
3001.07	1.25
3004.355	3.25
3007.636	5.25
3010.915	5.25
3014.191	4.25
3017.464	4.25
3020.734	2.25
3024.002	3.25
3027.267	6.25
3030.53	2.25
3033.789	3.25
3037.046	0.25
3040.301	0.25
3043.552	7.25
3046.801	7.25
3050.048	0.25
3053.291	3.25
3056.532	3.25
3059.771	5.25
3063.006	3.25
3066.239	-1.75
3069.469	3.25
3072.697	-0.75
3075.922	-1.75
3079.144	2.25
3082.364	5.25
3085.581	4.25
3088.795	4.25
3092.007	5.25
3095.216	1.25
3098.423	5.25
3101.627	10.25
3104.828	-1.75
3108.026	3.25
3111.222	-1.75
3114.416	7.25
3117.607	5.25
3120.795	3.25
3123.98	2.25
3127.163	0.25
3130.344	3.25
3133.521	3.25
3136.696	4.25
3139.869	0.25
3143.039	1.25
3146.206	2.25
3149.371	2.25
3152.533	-3.75
3155.693	-3.75
3158.85	3.25
3162.005	7.25
3165.157	6.25
3168.306	5.25
3171.453	4.25
3174.597	9.25
3177.739	7.25
3180.878	4.25
3184.014	3.25
3187.149	5.25
3190.28	8.25
3193.409	2.25
3196.536	0.25
3199.659	2.25
3202.781	-1.75
3205.9	4.25
3209.016	-4.75
3212.13	-0.75
3215.241	1.25
3218.35	-0.75
3221.456	5.25
3224.56	-3.75
3227.661	0.25
3230.76	1.25
3233.856	5.25
3236.95	7.25
3240.041	0.25
3243.13	8.25
3246.216	6.25
3249.3	1.25
3252.382	5.25
3255.46	8.25
3258.537	3.25
3261.611	11.25
3264.682	3.25
3267.751	3.25
3270.818	1.25
3273.882	0.25
3276.943	-2.75
3280.002	2.25
3283.059	0.25
3286.113	-0.75
3289.165	-0.75
3292.214	0.25
3295.261	-1.75
3298.306	-5.75
3301.348	6.25
3304.387	1.25
3307.425	7.25
3310.459	3.25
3313.492	3.25
3316.521	2.25
3319.549	5.25
3322.574	2.25
3325.597	3.25
3328.617	3.25
3331.635	0.25
3334.65	1.25
3337.663	3.25
3340.674	4.25
3343.682	4.25
3346.688	1.25
3349.691	1.25
3352.692	4.25
3355.691	-3.75
3358.687	0.25
3361.681	-0.75
3364.673	-3.75
3367.662	2.25
3370.649	-1.75
3373.633	1.25
3376.615	1.25
3379.595	2.25
3382.572	5.25
3385.547	5.25
3388.52	1.25
3391.49	4.25
3394.458	2.25
3397.424	1.25
3400.387	5.25
3403.348	7.25
3406.307	6.25
3409.263	4.25
3412.217	4.25
3415.168	4.25
3418.118	1.25
3421.065	-1.75
3424.009	-0.75
3426.951	3.25
3429.891	4.25
3432.829	6.25
3435.764	0.25
3438.697	3.25
3441.628	2.25
3444.557	1.25
3447.483	2.25
3450.407	5.25
3453.328	4.25
3456.247	1.25
3459.164	3.25
3462.079	-0.75
3464.991	7.25
3467.902	7.25
3470.809	1.25
3473.715	2.25
3476.618	2.25
3479.519	-0.75
3482.418	3.25
3485.315	3.25
3488.209	3.25
3491.101	-0.75
3493.99	4.25
3496.878	2.25
3499.763	0.25
3502.646	3.25
3505.527	-0.75
3508.405	0.25
3511.281	2.25
3514.155	2.25
3517.027	2.25
3519.897	2.25
3522.764	2.25
3525.629	-3.75
3528.492	-0.75
3531.352	-1.75
3534.211	0.25
3537.067	-2.75
3539.921	-1.75
3542.773	6.25
3545.622	2.25
3548.469	3.25
3551.315	1.25
3554.157	1.25
3556.998	8.25
3559.837	5.25
3562.673	4.25
3565.507	-1.75
3568.339	0.25
3571.169	7.25
3573.996	1.25
3576.822	3.25
3579.645	4.25
3582.466	-0.75
3585.285	3.25
3588.101	2.25
3590.916	0.25
3593.728	4.25
3596.538	-0.75
3599.346	4.25
3602.152	-2.75
3604.956	-0.75
3607.757	-1.75
3610.556	-2.75
3613.354	-3.75
3616.149	2.25
3618.942	2.25
3621.732	1.25
3624.521	-1.75
3627.307	3.25
3630.092	9.25
3632.874	4.25
3635.654	2.25
3638.432	0.25
3641.208	5.25
3643.982	4.25
3646.753	7.25
3649.523	-0.75
3652.29	5.25
3655.055	5.25
3657.818	0.25
3660.579	1.25
3663.338	2.25
3666.095	2.25
3668.849	4.25
3671.602	4.25
3674.352	-0.75
3677.101	0.25
3679.847	3.25
3682.591	1.25
3685.333	4.25
3688.073	1.25
3690.811	-2.75
3693.547	1.25
3696.281	2.25
3699.013	2.25
3701.742	1.25
3704.47	2.25
3707.195	1.25
3709.919	-0.75
3712.64	-0.75
3715.359	-4.75
3718.076	2.25
3720.792	-0.75
3723.505	3.25
3726.216	1.25
3728.925	3.25
3731.632	-1.75
3734.336	2.25
3737.039	1.25
3739.74	-0.75
3742.439	-1.75
3745.136	1.25
3747.83	3.25
3750.523	1.25
3753.213	8.25
3755.902	1.25
3758.589	0.25
3761.273	4.25
3763.956	2.25
3766.636	0.25
3769.315	0.25
3771.991	4.25
3774.665	0.25
3777.338	3.25
3780.008	-2.75
3782.677	-0.75
3785.343	-1.75
3788.007	-3.75
3790.67	2.25
3793.33	3.25
3795.989	0.25
3798.645	-2.75
3801.299	1.25
3803.952	-0.75
3806.602	-5.75
3809.251	2.25
3811.897	1.25
3814.542	-0.75
3817.184	4.25
3819.825	-2.75
3822.463	4.25
3825.1	3.25
3827.735	4.25
3830.367	2.25
3832.998	9.25
3835.627	-2.75
3838.253	3.25
3840.878	2.25
3843.501	-0.75
3846.122	1.25
3848.741	-0.75
3851.358	3.25
3853.973	2.25
3856.586	0.25
3859.197	3.25
3861.806	5.25
3864.414	2.25
3867.019	10.25
3869.622	3.25
3872.224	0.25
3874.823	3.25
3877.421	2.25
3880.016	1.25
3882.61	3.25
3885.202	7.25
3887.792	2.25
3890.38	5.25
3892.966	5.25
3895.55	3.25
3898.132	3.25
3900.713	5.25
3903.291	2.25
3905.868	0.25
3908.442	-0.75
3911.015	3.25
3913.586	5.25
3916.155	1.25
3918.722	1.25
3921.287	7.25
3923.85	-2.75
3926.411	2.25
3928.971	3.25
3931.528	-6.75
3934.084	-0.75
3936.638	0.25
3939.19	2.25
3941.74	0.25
3944.288	3.25
3946.834	6.25
3949.378	8.25
3951.921	2.25
3954.462	3.25
3957	5.25
3959.537	5.25
3962.072	6.25
3964.606	3.25
3967.137	3.25
3969.667	6.25
3972.194	4.25
3974.72	2.25
3977.244	-6.75
3979.766	-1.75
3982.286	-0.75
3984.805	-5.75
3987.321	1.25
3989.836	1.25
3992.349	0.25
3994.86	-0.75
3997.369	7.25
3999.877	0.25
4002.382	0.25
4004.886	4.25
4007.388	4.25
4009.888	2.25
4012.386	7.25
4014.883	3.25
4017.377	3.25
4019.87	7.25
4022.361	-1.75
4024.85	2.25
4027.338	2.25
4029.823	4.25
4032.307	8.25
4034.789	4.25
4037.269	4.25
4039.747	2.25
4042.224	4.25
4044.699	2.25
4047.172	-0.75
4049.643	2.25
4052.112	2.25
4054.58	1.25
4057.046	-0.75
4059.51	-3.75
4061.972	-4.75
4064.432	-0.75
4066.891	-2.75
4069.348	3.25
4071.803	0.25
4074.256	2.25
4076.708	6.25
4079.158	1.25
4081.606	1.25
4084.052	2.25
4086.497	7.25
4088.939	5.25
4091.38	4.25
4093.819	2.25
4096.257	1.25
4098.693	2.25
4101.127	3.25
4103.559	2.25
4105.989	-0.75
4108.418	4.25
4110.845	0.25
4113.27	1.25
4115.694	3.25
4118.115	-2.75
4120.535	6.25
4122.954	3.25
4125.37	1.25
4127.785	2.25
4130.198	3.25
4132.609	-0.75
4135.019	-1.75
4137.427	-4.75
4139.833	0.25
4142.237	-0.75
