Data from 2per_RamanShift_01.txt Node
Date: Mon Mar 19 11:36:09 IST 2018
User: aro
Spectrometer: QEPB0276
Trigger mode: 0
Integration Time (sec): 5.000000E0
Scans to average: 1
Electric dark correction enabled: true
Nonlinearity correction enabled: false
Boxcar width: 0
XAxis mode: Raman Shifts
Number of Pixels in Spectrum: 1044
>>>>>Begin Spectral Data<<<<<
160.701	-1.5
166.742	1.5
172.777	2.5
178.805	13.5
184.826	22.5
190.841	39.5
196.849	65.5
202.85	90.5
208.845	89.5
214.833	98.5
220.815	93.5
226.789	101.5
232.758	98.5
238.719	99.5
244.674	100.5
250.623	95.5
256.565	102.5
262.5	98.5
268.429	99.5
274.351	101.5
280.267	106.5
286.176	104.5
292.079	101.5
297.975	109.5
303.865	104.5
309.748	107.5
315.625	104.5
321.495	101.5
327.359	102.5
333.217	107.5
339.068	111.5
344.912	116.5
350.751	115.5
356.583	111.5
362.408	105.5
368.227	110.5
374.04	118.5
379.847	113.5
385.647	127.5
391.44	125.5
397.228	121.5
403.009	126.5
408.784	127.5
414.553	137.5
420.315	143.5
426.071	158.5
431.821	136.5
437.565	121.5
443.302	117.5
449.033	116.5
454.758	116.5
460.477	114.5
466.189	111.5
471.896	108.5
477.596	109.5
483.29	108.5
488.978	100.5
494.66	100.5
500.335	105.5
506.005	94.5
511.668	92.5
517.325	81.5
522.977	73.5
528.622	71.5
534.261	73.5
539.894	67.5
545.521	65.5
551.141	65.5
556.756	66.5
562.365	59.5
567.968	63.5
573.565	65.5
579.155	59.5
584.74	57.5
590.319	58.5
595.892	63.5
601.459	55.5
607.02	62.5
612.575	56.5
618.124	63.5
623.667	59.5
629.204	58.5
634.735	53.5
640.261	58.5
645.781	61.5
651.294	67.5
656.802	68.5
662.304	55.5
667.8	56.5
673.29	51.5
678.775	57.5
684.254	53.5
689.726	49.5
695.193	52.5
700.655	51.5
706.11	56.5
711.56	49.5
717.004	51.5
722.442	48.5
727.874	51.5
733.301	41.5
738.722	46.5
744.137	48.5
749.547	51.5
754.951	53.5
760.349	53.5
765.741	53.5
771.128	53.5
776.509	52.5
781.885	51.5
787.254	53.5
792.618	49.5
797.977	55.5
803.33	57.5
808.677	63.5
814.019	62.5
819.355	59.5
824.686	56.5
830.011	47.5
835.33	54.5
840.644	53.5
845.952	57.5
851.255	55.5
856.552	52.5
861.844	52.5
867.13	48.5
872.41	45.5
877.686	45.5
882.955	41.5
888.219	41.5
893.478	39.5
898.731	45.5
903.979	41.5
909.221	49.5
914.458	43.5
919.69	44.5
924.916	42.5
930.136	38.5
935.351	43.5
940.561	36.5
945.766	37.5
950.965	39.5
956.158	41.5
961.347	38.5
966.529	44.5
971.707	39.5
976.879	35.5
982.046	40.5
987.208	40.5
992.364	38.5
997.515	36.5
1002.66	38.5
1007.801	44.5
1012.936	39.5
1018.066	42.5
1023.19	37.5
1028.309	38.5
1033.423	38.5
1038.532	46.5
1043.636	44.5
1048.734	38.5
1053.827	38.5
1058.915	31.5
1063.998	37.5
1069.075	34.5
1074.147	35.5
1079.214	35.5
1084.276	39.5
1089.333	40.5
1094.385	35.5
1099.431	42.5
1104.472	31.5
1109.509	31.5
1114.54	34.5
1119.565	32.5
1124.586	33.5
1129.602	36.5
1134.613	36.5
1139.618	38.5
1144.619	44.5
1149.614	34.5
1154.604	36.5
1159.589	34.5
1164.57	34.5
1169.545	36.5
1174.515	38.5
1179.48	38.5
1184.44	37.5
1189.395	33.5
1194.345	34.5
1199.29	31.5
1204.23	33.5
1209.165	28.5
1214.095	31.5
1219.021	33.5
1223.941	37.5
1228.856	33.5
1233.766	39.5
1238.672	38.5
1243.572	36.5
1248.467	30.5
1253.358	31.5
1258.244	31.5
1263.124	32.5
1268	26.5
1272.871	28.5
1277.737	32.5
1282.599	32.5
1287.455	34.5
1292.306	30.5
1297.153	28.5
1301.995	30.5
1306.832	27.5
1311.664	26.5
1316.491	28.5
1321.314	36.5
1326.132	36.5
1330.945	36.5
1335.753	36.5
1340.556	35.5
1345.354	29.5
1350.148	29.5
1354.937	27.5
1359.722	28.5
1364.501	26.5
1369.276	29.5
1374.046	28.5
1378.811	27.5
1383.572	21.5
1388.327	26.5
1393.079	27.5
1397.825	24.5
1402.567	25.5
1407.304	23.5
1412.036	21.5
1416.764	18.5
1421.487	27.5
1426.205	27.5
1430.919	29.5
1435.628	31.5
1440.333	33.5
1445.032	32.5
1449.727	28.5
1454.418	36.5
1459.104	35.5
1463.785	34.5
1468.462	33.5
1473.134	31.5
1477.802	25.5
1482.465	24.5
1487.123	30.5
1491.777	28.5
1496.426	27.5
1501.071	21.5
1505.711	23.5
1510.347	22.5
1514.978	19.5
1519.604	23.5
1524.226	23.5
1528.844	23.5
1533.457	21.5
1538.065	24.5
1542.669	22.5
1547.269	20.5
1551.864	20.5
1556.454	20.5
1561.041	18.5
1565.622	21.5
1570.199	23.5
1574.772	20.5
1579.34	22.5
1583.904	23.5
1588.464	21.5
1593.019	17.5
1597.569	19.5
1602.115	18.5
1606.657	16.5
1611.195	21.5
1615.728	22.5
1620.256	22.5
1624.78	19.5
1629.3	19.5
1633.816	20.5
1638.327	19.5
1642.834	18.5
1647.336	15.5
1651.834	18.5
1656.328	21.5
1660.817	18.5
1665.302	22.5
1669.783	18.5
1674.259	20.5
1678.732	18.5
1683.199	13.5
1687.663	15.5
1692.122	17.5
1696.577	16.5
1701.028	23.5
1705.474	18.5
1709.917	19.5
1714.355	12.5
1718.788	18.5
1723.218	15.5
1727.643	15.5
1732.064	11.5
1736.481	15.5
1740.893	11.5
1745.301	19.5
1749.705	14.5
1754.105	17.5
1758.501	13.5
1762.893	15.5
1767.28	16.5
1771.663	14.5
1776.042	5.5
1780.417	12.5
1784.787	17.5
1789.154	16.5
1793.516	18.5
1797.874	15.5
1802.228	16.5
1806.578	8.5
1810.924	12.5
1815.266	12.5
1819.603	8.5
1823.937	13.5
1828.266	12.5
1832.591	12.5
1836.913	10.5
1841.23	13.5
1845.543	11.5
1849.852	9.5
1854.156	12.5
1858.457	9.5
1862.754	15.5
1867.047	10.5
1871.335	15.5
1875.62	14.5
1879.9	15.5
1884.177	14.5
1888.449	9.5
1892.718	12.5
1896.982	11.5
1901.243	12.5
1905.499	11.5
1909.752	12.5
1914	11.5
1918.245	9.5
1922.485	7.5
1926.722	15.5
1930.954	11.5
1935.183	7.5
1939.408	9.5
1943.628	11.5
1947.845	10.5
1952.058	13.5
1956.267	10.5
1960.472	9.5
1964.673	9.5
1968.87	8.5
1973.063	6.5
1977.252	9.5
1981.438	10.5
1985.619	9.5
1989.797	5.5
1993.971	3.5
1998.14	9.5
2002.306	7.5
2006.469	11.5
2010.627	11.5
2014.781	11.5
2018.932	11.5
2023.078	8.5
2027.221	6.5
2031.36	5.5
2035.495	10.5
2039.627	7.5
2043.754	10.5
2047.878	12.5
2051.998	10.5
2056.114	7.5
2060.226	13.5
2064.334	5.5
2068.439	5.5
2072.54	1.5
2076.637	7.5
2080.73	9.5
2084.82	10.5
2088.906	12.5
2092.988	7.5
2097.066	6.5
2101.14	10.5
2105.211	6.5
2109.278	5.5
2113.342	4.5
2117.401	6.5
2121.457	6.5
2125.509	13.5
2129.558	7.5
2133.602	12.5
2137.643	3.5
2141.681	6.5
2145.714	3.5
2149.744	6.5
2153.77	5.5
2157.793	9.5
2161.812	8.5
2165.827	9.5
2169.838	5.5
2173.846	5.5
2177.851	1.5
2181.851	4.5
2185.848	3.5
2189.841	6.5
2193.831	1.5
2197.817	7.5
2201.799	7.5
2205.778	4.5
2209.753	2.5
2213.725	2.5
2217.693	0.5
2221.657	2.5
2225.618	3.5
2229.575	6.5
2233.529	6.5
2237.479	4.5
2241.425	5.5
2245.368	6.5
2249.307	-0.5
2253.243	2.5
2257.175	3.5
2261.104	2.5
2265.029	3.5
2268.95	1.5
2272.868	2.5
2276.783	-0.5
2280.694	6.5
2284.601	3.5
2288.505	6.5
2292.405	5.5
2296.302	5.5
2300.195	3.5
2304.085	1.5
2307.971	-0.5
2311.854	1.5
2315.734	7.5
2319.609	1.5
2323.482	4.5
2327.351	2.5
2331.216	7.5
2335.078	2.5
2338.937	2.5
2342.792	-0.5
2346.643	-1.5
2350.492	4.5
2354.336	3.5
2358.178	3.5
2362.015	4.5
2365.85	1.5
2369.681	2.5
2373.508	-1.5
2377.333	-0.5
2381.153	-1.5
2384.971	-0.5
2388.785	1.5
2392.595	4.5
2396.402	6.5
2400.206	4.5
2404.007	2.5
2407.804	0.5
2411.597	2.5
2415.388	-1.5
2419.174	1.5
2422.958	1.5
2426.738	-1.5
2430.515	6.5
2434.289	1.5
2438.059	2.5
2441.825	-2.5
2445.589	2.5
2449.349	1.5
2453.106	4.5
2456.859	0.5
2460.61	4.5
2464.356	5.5
2468.1	1.5
2471.84	-0.5
2475.577	3.5
2479.311	-0.5
2483.041	4.5
2486.768	1.5
2490.492	1.5
2494.213	0.5
2497.93	-2.5
2501.644	-2.5
2505.355	-2.5
2509.062	-2.5
2512.766	0.5
2516.467	0.5
2520.165	0.5
2523.859	1.5
2527.551	2.5
2531.239	4.5
2534.923	2.5
2538.605	-1.5
2542.283	-4.5
2545.958	2.5
2549.63	0.5
2553.299	1.5
2556.964	2.5
2560.626	2.5
2564.285	0.5
2567.941	3.5
2571.594	0.5
2575.243	-4.5
2578.89	2.5
2582.533	-3.5
2586.173	-0.5
2589.809	2.5
2593.443	2.5
2597.073	1.5
2600.701	-0.5
2604.325	-1.5
2607.946	0.5
2611.564	1.5
2615.178	-1.5
2618.79	0.5
2622.398	0.5
2626.004	2.5
2629.606	2.5
2633.205	1.5
2636.801	1.5
2640.394	-0.5
2643.983	2.5
2647.57	2.5
2651.153	4.5
2654.734	0.5
2658.311	-1.5
2661.885	2.5
2665.456	-1.5
2669.025	1.5
2672.589	0.5
2676.151	4.5
2679.71	4.5
2683.266	0.5
2686.819	4.5
2690.368	-1.5
2693.915	-0.5
2697.458	-3.5
2700.999	5.5
2704.536	2.5
2708.071	3.5
2711.602	4.5
2715.13	4.5
2718.656	0.5
2722.178	-1.5
2725.697	-2.5
2729.214	-1.5
2732.727	1.5
2736.237	2.5
2739.744	2.5
2743.249	7.5
2746.75	3.5
2750.248	-1.5
2753.743	-3.5
2757.236	-0.5
2760.725	-3.5
2764.211	-5.5
2767.695	-0.5
2771.175	-1.5
2774.652	1.5
2778.127	-0.5
2781.598	1.5
2785.067	1.5
2788.532	-0.5
2791.995	-1.5
2795.455	-0.5
2798.911	-1.5
2802.365	-1.5
2805.816	0.5
2809.264	1.5
2812.709	1.5
2816.151	0.5
2819.59	-2.5
2823.026	-1.5
2826.46	0.5
2829.89	1.5
2833.318	-0.5
2836.742	2.5
2840.164	5.5
2843.583	4.5
2846.999	6.5
2850.412	4.5
2853.822	3.5
2857.229	5.5
2860.634	6.5
2864.035	3.5
2867.434	8.5
2870.83	10.5
2874.223	9.5
2877.613	10.5
2881	9.5
2884.385	6.5
2887.766	11.5
2891.145	13.5
2894.521	10.5
2897.894	13.5
2901.264	8.5
2904.631	9.5
2907.996	6.5
2911.358	5.5
2914.717	1.5
2918.073	5.5
2921.426	7.5
2924.777	3.5
2928.124	6.5
2931.469	6.5
2934.811	5.5
2938.15	6.5
2941.487	3.5
2944.821	2.5
2948.152	2.5
2951.48	1.5
2954.805	5.5
2958.128	8.5
2961.447	4.5
2964.765	3.5
2968.079	11.5
2971.39	5.5
2974.699	2.5
2978.005	-5.5
2981.308	-1.5
2984.609	-2.5
2987.907	0.5
2991.202	2.5
2994.494	1.5
2997.784	0.5
3001.07	2.5
3004.355	-1.5
3007.636	-1.5
3010.915	-1.5
3014.191	-1.5
3017.464	-3.5
3020.734	-1.5
3024.002	-0.5
3027.267	4.5
3030.53	-0.5
3033.789	-1.5
3037.046	-2.5
3040.301	-3.5
3043.552	-5.5
3046.801	-2.5
3050.048	-1.5
3053.291	-1.5
3056.532	1.5
3059.771	3.5
3063.006	-0.5
3066.239	-1.5
3069.469	-1.5
3072.697	-1.5
3075.922	-3.5
3079.144	-0.5
3082.364	2.5
3085.581	-0.5
3088.795	3.5
3092.007	1.5
3095.216	-0.5
3098.423	0.5
3101.627	-4.5
3104.828	-2.5
3108.026	-1.5
3111.222	-0.5
3114.416	-3.5
3117.607	4.5
3120.795	0.5
3123.98	4.5
3127.163	2.5
3130.344	0.5
3133.521	-1.5
3136.696	-1.5
3139.869	-1.5
3143.039	-0.5
3146.206	-1.5
3149.371	1.5
3152.533	1.5
3155.693	-0.5
3158.85	-2.5
3162.005	-1.5
3165.157	-2.5
3168.306	-1.5
3171.453	-2.5
3174.597	1.5
3177.739	-0.5
3180.878	3.5
3184.014	-0.5
3187.149	-3.5
3190.28	-4.5
3193.409	-1.5
3196.536	-5.5
3199.659	0.5
3202.781	0.5
3205.9	0.5
3209.016	-2.5
3212.13	0.5
3215.241	-0.5
3218.35	3.5
3221.456	0.5
3224.56	1.5
3227.661	-0.5
3230.76	4.5
3233.856	-0.5
3236.95	1.5
3240.041	-3.5
3243.13	-6.5
3246.216	-4.5
3249.3	1.5
3252.382	1.5
3255.46	2.5
3258.537	-1.5
3261.611	2.5
3264.682	0.5
3267.751	-2.5
3270.818	-0.5
3273.882	0.5
3276.943	0.5
3280.002	-2.5
3283.059	-1.5
3286.113	3.5
3289.165	-3.5
3292.214	-3.5
3295.261	-1.5
3298.306	-2.5
3301.348	-3.5
3304.387	-0.5
3307.425	0.5
3310.459	4.5
3313.492	-2.5
3316.521	1.5
3319.549	-0.5
3322.574	-0.5
3325.597	-5.5
3328.617	-3.5
3331.635	-2.5
3334.65	-1.5
3337.663	1.5
3340.674	3.5
3343.682	-0.5
3346.688	1.5
3349.691	-3.5
3352.692	-2.5
3355.691	-6.5
3358.687	-7.5
3361.681	0.5
3364.673	3.5
3367.662	-1.5
3370.649	5.5
3373.633	0.5
3376.615	1.5
3379.595	-9.5
3382.572	-1.5
3385.547	-3.5
3388.52	-1.5
3391.49	-2.5
3394.458	0.5
3397.424	1.5
3400.387	-1.5
3403.348	-2.5
3406.307	-2.5
3409.263	-0.5
3412.217	-2.5
3415.168	-3.5
3418.118	1.5
3421.065	2.5
3424.009	-0.5
3426.951	-1.5
3429.891	0.5
3432.829	-2.5
3435.764	-3.5
3438.697	-6.5
3441.628	0.5
3444.557	-6.5
3447.483	-0.5
3450.407	1.5
3453.328	4.5
3456.247	-3.5
3459.164	-2.5
3462.079	-2.5
3464.991	-2.5
3467.902	-7.5
3470.809	-2.5
3473.715	-2.5
3476.618	0.5
3479.519	-4.5
3482.418	-2.5
3485.315	-2.5
3488.209	0.5
3491.101	-3.5
3493.99	-4.5
3496.878	-3.5
3499.763	-4.5
3502.646	-2.5
3505.527	-2.5
3508.405	-0.5
3511.281	-1.5
3514.155	-2.5
3517.027	-0.5
3519.897	-1.5
3522.764	-3.5
3525.629	-4.5
3528.492	-3.5
3531.352	-2.5
3534.211	-2.5
3537.067	-8.5
3539.921	-3.5
3542.773	-3.5
3545.622	2.5
3548.469	-4.5
3551.315	-3.5
3554.157	-6.5
3556.998	-4.5
3559.837	-5.5
3562.673	-5.5
3565.507	-6.5
3568.339	-0.5
3571.169	0.5
3573.996	-2.5
3576.822	-2.5
3579.645	-6.5
3582.466	-5.5
3585.285	-3.5
3588.101	-4.5
3590.916	-3.5
3593.728	0.5
3596.538	-0.5
3599.346	-1.5
3602.152	-1.5
3604.956	-5.5
3607.757	-3.5
3610.556	-6.5
3613.354	-2.5
3616.149	-3.5
3618.942	-0.5
3621.732	2.5
3624.521	0.5
3627.307	-2.5
3630.092	-4.5
3632.874	-5.5
3635.654	-3.5
3638.432	-5.5
3641.208	-2.5
3643.982	-2.5
3646.753	0.5
3649.523	-5.5
3652.29	1.5
3655.055	-6.5
3657.818	-6.5
3660.579	0.5
3663.338	-4.5
3666.095	-3.5
3668.849	-4.5
3671.602	-2.5
3674.352	0.5
3677.101	-3.5
3679.847	-3.5
3682.591	-3.5
3685.333	-4.5
3688.073	-5.5
3690.811	0.5
3693.547	-2.5
3696.281	-3.5
3699.013	-6.5
3701.742	-2.5
3704.47	-2.5
3707.195	-3.5
3709.919	-5.5
3712.64	-3.5
3715.359	-2.5
3718.076	-2.5
3720.792	-4.5
3723.505	-5.5
3726.216	-5.5
3728.925	-5.5
3731.632	-4.5
3734.336	-7.5
3737.039	-0.5
3739.74	-1.5
3742.439	-0.5
3745.136	-2.5
3747.83	-5.5
3750.523	-3.5
3753.213	-5.5
3755.902	-3.5
3758.589	-3.5
3761.273	-3.5
3763.956	-1.5
3766.636	-1.5
3769.315	-3.5
3771.991	-3.5
3774.665	-1.5
3777.338	-2.5
3780.008	-2.5
3782.677	-4.5
3785.343	-3.5
3788.007	-5.5
3790.67	-1.5
3793.33	0.5
3795.989	-3.5
3798.645	-6.5
3801.299	-2.5
3803.952	-4.5
3806.602	-3.5
3809.251	-1.5
3811.897	-6.5
3814.542	-6.5
3817.184	-2.5
3819.825	-6.5
3822.463	-4.5
3825.1	-2.5
3827.735	-4.5
3830.367	-0.5
3832.998	-1.5
3835.627	-2.5
3838.253	-4.5
3840.878	-5.5
3843.501	-3.5
3846.122	-3.5
3848.741	-0.5
3851.358	0.5
3853.973	-2.5
3856.586	-2.5
3859.197	-4.5
3861.806	-4.5
3864.414	-8.5
3867.019	-5.5
3869.622	-6.5
3872.224	-3.5
3874.823	-0.5
3877.421	-1.5
3880.016	-2.5
3882.61	-2.5
3885.202	1.5
3887.792	-2.5
3890.38	-4.5
3892.966	-3.5
3895.55	-0.5
3898.132	1.5
3900.713	1.5
3903.291	-1.5
3905.868	-0.5
3908.442	-2.5
3911.015	-4.5
3913.586	-3.5
3916.155	-4.5
3918.722	-1.5
3921.287	-0.5
3923.85	-2.5
3926.411	-1.5
3928.971	-2.5
3931.528	-0.5
3934.084	-1.5
3936.638	-3.5
3939.19	-5.5
3941.74	-2.5
3944.288	-7.5
3946.834	-2.5
3949.378	-3.5
3951.921	-1.5
3954.462	-2.5
3957	-5.5
3959.537	0.5
3962.072	-1.5
3964.606	-1.5
3967.137	-2.5
3969.667	-3.5
3972.194	-5.5
3974.72	-4.5
3977.244	-4.5
3979.766	-4.5
3982.286	-6.5
3984.805	-1.5
3987.321	-3.5
3989.836	-4.5
3992.349	-0.5
3994.86	-2.5
3997.369	-7.5
3999.877	-6.5
4002.382	-6.5
4004.886	-4.5
4007.388	-3.5
4009.888	-4.5
4012.386	-1.5
4014.883	-3.5
4017.377	-3.5
4019.87	-3.5
4022.361	-3.5
4024.85	-5.5
4027.338	-5.5
4029.823	-1.5
4032.307	-2.5
4034.789	-2.5
4037.269	-1.5
4039.747	0.5
4042.224	-2.5
4044.699	-6.5
4047.172	-3.5
4049.643	-8.5
4052.112	-6.5
4054.58	-4.5
4057.046	-2.5
4059.51	-2.5
4061.972	1.5
4064.432	-1.5
4066.891	-3.5
4069.348	-1.5
4071.803	-8.5
4074.256	-8.5
4076.708	-4.5
4079.158	-1.5
4081.606	-5.5
4084.052	0.5
4086.497	-1.5
4088.939	-1.5
4091.38	-0.5
4093.819	-7.5
4096.257	-8.5
4098.693	-5.5
4101.127	-5.5
4103.559	0.5
4105.989	6.5
4108.418	5.5
4110.845	0.5
4113.27	-1.5
4115.694	-1.5
4118.115	-1.5
4120.535	-7.5
4122.954	-5.5
4125.37	-8.5
4127.785	-9.5
4130.198	-4.5
4132.609	-0.5
4135.019	-2.5
4137.427	-2.5
4139.833	-4.5
4142.237	-6.5
