Data from 0CFU3_RamanShift_1.txt Node
Date: Wed Jan 25 11:41:46 IST 2017
User: aro
Spectrometer: QEPB0276
Trigger mode: 0
Integration Time (sec): 5.000000E0
Scans to average: 1
Electric dark correction enabled: true
Nonlinearity correction enabled: false
Boxcar width: 0
XAxis mode: Raman Shifts
Number of Pixels in Spectrum: 1044
>>>>>Begin Spectral Data<<<<<
160.701	-31.25
166.742	-0.25
172.777	101.75
178.805	417.75
184.826	1175.75
190.841	2412.75
196.849	3757.75
202.85	4612.75
208.845	4764.75
214.833	4622.75
220.815	4446.75
226.789	4312.75
232.758	4225.75
238.719	4077.75
244.674	3923.75
250.623	3744.75
256.565	3583.75
262.5	3415.75
268.429	3285.75
274.351	3136.75
280.267	3019.75
286.176	2937.75
292.079	2831.75
297.975	2746.75
303.865	2657.75
309.748	2587.75
315.625	2515.75
321.495	2437.75
327.359	2453.75
333.217	2407.75
339.068	2381.75
344.912	2371.75
350.751	2364.75
356.583	2339.75
362.408	2357.75
368.227	2337.75
374.04	2331.75
379.847	2346.75
385.647	2385.75
391.44	2374.75
397.228	2400.75
403.009	2423.75
408.784	2447.75
414.553	2425.75
420.315	2438.75
426.071	2442.75
431.821	2452.75
437.565	2443.75
443.302	2439.75
449.033	2426.75
454.758	2435.75
460.477	2419.75
466.189	2397.75
471.896	2397.75
477.596	2379.75
483.29	2381.75
488.978	2388.75
494.66	2357.75
500.335	2319.75
506.005	2268.75
511.668	2214.75
517.325	2183.75
522.977	2142.75
528.622	2127.75
534.261	2129.75
539.894	2116.75
545.521	2080.75
551.141	2072.75
556.756	2078.75
562.365	2055.75
567.968	2049.75
573.565	2026.75
579.155	2012.75
584.74	1989.75
590.319	1975.75
595.892	1978.75
601.459	1966.75
607.02	1933.75
612.575	1928.75
618.124	1903.75
623.667	1885.75
629.204	1888.75
634.735	1852.75
640.261	1840.75
645.781	1839.75
651.294	1830.75
656.802	1826.75
662.304	1811.75
667.8	1812.75
673.29	1806.75
678.775	1787.75
684.254	1804.75
689.726	1776.75
695.193	1771.75
700.655	1757.75
706.11	1764.75
711.56	1725.75
717.004	1722.75
722.442	1715.75
727.874	1696.75
733.301	1693.75
738.722	1697.75
744.137	1687.75
749.547	1694.75
754.951	1673.75
760.349	1675.75
765.741	1671.75
771.128	1664.75
776.509	1658.75
781.885	1675.75
787.254	1675.75
792.618	1653.75
797.977	1653.75
803.33	1619.75
808.677	1624.75
814.019	1614.75
819.355	1590.75
824.686	1595.75
830.011	1563.75
835.33	1565.75
840.644	1547.75
845.952	1558.75
851.255	1525.75
856.552	1539.75
861.844	1539.75
867.13	1514.75
872.41	1513.75
877.686	1502.75
882.955	1492.75
888.219	1454.75
893.478	1431.75
898.731	1422.75
903.979	1382.75
909.221	1383.75
914.458	1382.75
919.69	1359.75
924.916	1355.75
930.136	1359.75
935.351	1360.75
940.561	1346.75
945.766	1355.75
950.965	1352.75
956.158	1331.75
961.347	1331.75
966.529	1308.75
971.707	1287.75
976.879	1276.75
982.046	1252.75
987.208	1248.75
992.364	1247.75
997.515	1264.75
1002.66	1273.75
1007.801	1282.75
1012.936	1287.75
1018.066	1289.75
1023.19	1304.75
1028.309	1327.75
1033.423	1309.75
1038.532	1292.75
1043.636	1280.75
1048.734	1280.75
1053.827	1264.75
1058.915	1251.75
1063.998	1241.75
1069.075	1238.75
1074.147	1243.75
1079.214	1247.75
1084.276	1269.75
1089.333	1279.75
1094.385	1287.75
1099.431	1280.75
1104.472	1289.75
1109.509	1286.75
1114.54	1276.75
1119.565	1257.75
1124.586	1236.75
1129.602	1243.75
1134.613	1212.75
1139.618	1213.75
1144.619	1213.75
1149.614	1210.75
1154.604	1228.75
1159.589	1224.75
1164.57	1229.75
1169.545	1250.75
1174.515	1240.75
1179.48	1252.75
1184.44	1244.75
1189.395	1235.75
1194.345	1232.75
1199.29	1222.75
1204.23	1223.75
1209.165	1225.75
1214.095	1224.75
1219.021	1230.75
1223.941	1251.75
1228.856	1241.75
1233.766	1247.75
1238.672	1260.75
1243.572	1267.75
1248.467	1252.75
1253.358	1229.75
1258.244	1223.75
1263.124	1223.75
1268	1198.75
1272.871	1174.75
1277.737	1160.75
1282.599	1158.75
1287.455	1162.75
1292.306	1176.75
1297.153	1171.75
1301.995	1187.75
1306.832	1186.75
1311.664	1196.75
1316.491	1206.75
1321.314	1197.75
1326.132	1187.75
1330.945	1181.75
1335.753	1173.75
1340.556	1165.75
1345.354	1146.75
1350.148	1143.75
1354.937	1136.75
1359.722	1116.75
1364.501	1104.75
1369.276	1110.75
1374.046	1107.75
1378.811	1072.75
1383.572	1083.75
1388.327	1083.75
1393.079	1071.75
1397.825	1088.75
1402.567	1055.75
1407.304	1066.75
1412.036	1054.75
1416.764	1060.75
1421.487	1059.75
1426.205	1068.75
1430.919	1056.75
1435.628	1086.75
1440.333	1089.75
1445.032	1094.75
1449.727	1123.75
1454.418	1118.75
1459.104	1105.75
1463.785	1104.75
1468.462	1092.75
1473.134	1081.75
1477.802	1070.75
1482.465	1081.75
1487.123	1065.75
1491.777	1086.75
1496.426	1065.75
1501.071	1073.75
1505.711	1096.75
1510.347	1110.75
1514.978	1127.75
1519.604	1108.75
1524.226	1124.75
1528.844	1120.75
1533.457	1129.75
1538.065	1128.75
1542.669	1110.75
1547.269	1124.75
1551.864	1118.75
1556.454	1121.75
1561.041	1152.75
1565.622	1145.75
1570.199	1150.75
1574.772	1184.75
1579.34	1208.75
1583.904	1219.75
1588.464	1252.75
1593.019	1254.75
1597.569	1259.75
1602.115	1273.75
1606.657	1301.75
1611.195	1288.75
1615.728	1299.75
1620.256	1329.75
1624.78	1360.75
1629.3	1362.75
1633.816	1373.75
1638.327	1401.75
1642.834	1421.75
1647.336	1442.75
1651.834	1456.75
1656.328	1446.75
1660.817	1417.75
1665.302	1419.75
1669.783	1376.75
1674.259	1332.75
1678.732	1307.75
1683.199	1262.75
1687.663	1212.75
1692.122	1168.75
1696.577	1137.75
1701.028	1098.75
1705.474	1036.75
1709.917	1026.75
1714.355	994.75
1718.788	988.75
1723.218	968.75
1727.643	950.75
1732.064	924.75
1736.481	902.75
1740.893	881.75
1745.301	855.75
1749.705	832.75
1754.105	807.75
1758.501	801.75
1762.893	790.75
1767.28	779.75
1771.663	772.75
1776.042	756.75
1780.417	759.75
1784.787	773.75
1789.154	770.75
1793.516	777.75
1797.874	768.75
1802.228	759.75
1806.578	751.75
1810.924	740.75
1815.266	719.75
1819.603	712.75
1823.937	703.75
1828.266	705.75
1832.591	682.75
1836.913	700.75
1841.23	685.75
1845.543	678.75
1849.852	699.75
1854.156	679.75
1858.457	697.75
1862.754	696.75
1867.047	698.75
1871.335	705.75
1875.62	693.75
1879.9	715.75
1884.177	704.75
1888.449	707.75
1892.718	691.75
1896.982	693.75
1901.243	701.75
1905.499	691.75
1909.752	696.75
1914	696.75
1918.245	683.75
1922.485	685.75
1926.722	681.75
1930.954	693.75
1935.183	707.75
1939.408	695.75
1943.628	688.75
1947.845	711.75
1952.058	707.75
1956.267	694.75
1960.472	688.75
1964.673	682.75
1968.87	677.75
1973.063	662.75
1977.252	674.75
1981.438	658.75
1985.619	663.75
1989.797	651.75
1993.971	652.75
1998.14	656.75
2002.306	659.75
2006.469	664.75
2010.627	669.75
2014.781	672.75
2018.932	664.75
2023.078	669.75
2027.221	664.75
2031.36	663.75
2035.495	658.75
2039.627	669.75
2043.754	644.75
2047.878	646.75
2051.998	651.75
2056.114	654.75
2060.226	647.75
2064.334	646.75
2068.439	662.75
2072.54	664.75
2076.637	660.75
2080.73	665.75
2084.82	673.75
2088.906	675.75
2092.988	673.75
2097.066	664.75
2101.14	667.75
2105.211	663.75
2109.278	655.75
2113.342	650.75
2117.401	651.75
2121.457	652.75
2125.509	649.75
2129.558	648.75
2133.602	643.75
2137.643	622.75
2141.681	638.75
2145.714	636.75
2149.744	617.75
2153.77	621.75
2157.793	618.75
2161.812	596.75
2165.827	596.75
2169.838	584.75
2173.846	572.75
2177.851	577.75
2181.851	560.75
2185.848	571.75
2189.841	554.75
2193.831	554.75
2197.817	537.75
2201.799	539.75
2205.778	542.75
2209.753	542.75
2213.725	530.75
2217.693	546.75
2221.657	546.75
2225.618	531.75
2229.575	544.75
2233.529	530.75
2237.479	527.75
2241.425	518.75
2245.368	509.75
2249.307	514.75
2253.243	491.75
2257.175	498.75
2261.104	484.75
2265.029	481.75
2268.95	479.75
2272.868	465.75
2276.783	462.75
2280.694	449.75
2284.601	450.75
2288.505	449.75
2292.405	440.75
2296.302	426.75
2300.195	440.75
2304.085	415.75
2307.971	406.75
2311.854	411.75
2315.734	401.75
2319.609	388.75
2323.482	399.75
2327.351	391.75
2331.216	398.75
2335.078	385.75
2338.937	379.75
2342.792	376.75
2346.643	364.75
2350.492	372.75
2354.336	378.75
2358.178	368.75
2362.015	372.75
2365.85	376.75
2369.681	372.75
2373.508	376.75
2377.333	374.75
2381.153	374.75
2384.971	361.75
2388.785	377.75
2392.595	377.75
2396.402	357.75
2400.206	363.75
2404.007	350.75
2407.804	352.75
2411.597	350.75
2415.388	347.75
2419.174	356.75
2422.958	355.75
2426.738	339.75
2430.515	356.75
2434.289	346.75
2438.059	342.75
2441.825	346.75
2445.589	353.75
2449.349	340.75
2453.106	331.75
2456.859	336.75
2460.61	343.75
2464.356	331.75
2468.1	326.75
2471.84	326.75
2475.577	331.75
2479.311	310.75
2483.041	319.75
2486.768	321.75
2490.492	325.75
2494.213	316.75
2497.93	322.75
2501.644	319.75
2505.355	322.75
2509.062	318.75
2512.766	320.75
2516.467	317.75
2520.165	315.75
2523.859	315.75
2527.551	312.75
2531.239	305.75
2534.923	299.75
2538.605	299.75
2542.283	289.75
2545.958	297.75
2549.63	290.75
2553.299	281.75
2556.964	293.75
2560.626	289.75
2564.285	288.75
2567.941	276.75
2571.594	286.75
2575.243	288.75
2578.89	279.75
2582.533	275.75
2586.173	274.75
2589.809	265.75
2593.443	273.75
2597.073	269.75
2600.701	270.75
2604.325	263.75
2607.946	267.75
2611.564	265.75
2615.178	256.75
2618.79	261.75
2622.398	258.75
2626.004	259.75
2629.606	261.75
2633.205	248.75
2636.801	257.75
2640.394	251.75
2643.983	253.75
2647.57	249.75
2651.153	241.75
2654.734	241.75
2658.311	230.75
2661.885	238.75
2665.456	239.75
2669.025	237.75
2672.589	230.75
2676.151	231.75
2679.71	224.75
2683.266	220.75
2686.819	222.75
2690.368	213.75
2693.915	214.75
2697.458	211.75
2700.999	212.75
2704.536	206.75
2708.071	210.75
2711.602	214.75
2715.13	204.75
2718.656	194.75
2722.178	207.75
2725.697	199.75
2729.214	211.75
2732.727	201.75
2736.237	204.75
2739.744	207.75
2743.249	219.75
2746.75	213.75
2750.248	209.75
2753.743	206.75
2757.236	210.75
2760.725	195.75
2764.211	207.75
2767.695	202.75
2771.175	194.75
2774.652	196.75
2778.127	189.75
2781.598	192.75
2785.067	192.75
2788.532	195.75
2791.995	193.75
2795.455	196.75
2798.911	199.75
2802.365	196.75
2805.816	195.75
2809.264	203.75
2812.709	212.75
2816.151	203.75
2819.59	199.75
2823.026	208.75
2826.46	200.75
2829.89	204.75
2833.318	209.75
2836.742	205.75
2840.164	204.75
2843.583	197.75
2846.999	214.75
2850.412	212.75
2853.822	218.75
2857.229	218.75
2860.634	217.75
2864.035	220.75
2867.434	230.75
2870.83	227.75
2874.223	229.75
2877.613	235.75
2881	243.75
2884.385	243.75
2887.766	238.75
2891.145	234.75
2894.521	234.75
2897.894	238.75
2901.264	247.75
2904.631	247.75
2907.996	243.75
2911.358	260.75
2914.717	248.75
2918.073	245.75
2921.426	268.75
2924.777	263.75
2928.124	269.75
2931.469	274.75
2934.811	286.75
2938.15	286.75
2941.487	294.75
2944.821	315.75
2948.152	296.75
2951.48	308.75
2954.805	303.75
2958.128	313.75
2961.447	322.75
2964.765	320.75
2968.079	326.75
2971.39	331.75
2974.699	344.75
2978.005	351.75
2981.308	366.75
2984.609	370.75
2987.907	383.75
2991.202	392.75
2994.494	402.75
2997.784	411.75
3001.07	423.75
3004.355	432.75
3007.636	449.75
3010.915	457.75
3014.191	456.75
3017.464	464.75
3020.734	479.75
3024.002	485.75
3027.267	494.75
3030.53	497.75
3033.789	508.75
3037.046	523.75
3040.301	539.75
3043.552	547.75
3046.801	561.75
3050.048	575.75
3053.291	593.75
3056.532	610.75
3059.771	634.75
3063.006	646.75
3066.239	674.75
3069.469	705.75
3072.697	728.75
3075.922	728.75
3079.144	742.75
3082.364	780.75
3085.581	787.75
3088.795	790.75
3092.007	827.75
3095.216	853.75
3098.423	865.75
3101.627	879.75
3104.828	891.75
3108.026	914.75
3111.222	951.75
3114.416	968.75
3117.607	990.75
3120.795	1014.75
3123.98	1032.75
3127.163	1030.75
3130.344	1087.75
3133.521	1110.75
3136.696	1115.75
3139.869	1152.75
3143.039	1159.75
3146.206	1189.75
3149.371	1200.75
3152.533	1210.75
3155.693	1212.75
3158.85	1213.75
3162.005	1250.75
3165.157	1230.75
3168.306	1241.75
3171.453	1244.75
3174.597	1243.75
3177.739	1262.75
3180.878	1249.75
3184.014	1247.75
3187.149	1261.75
3190.28	1275.75
3193.409	1288.75
3196.536	1286.75
3199.659	1294.75
3202.781	1287.75
3205.9	1291.75
3209.016	1285.75
3212.13	1282.75
3215.241	1269.75
3218.35	1275.75
3221.456	1249.75
3224.56	1242.75
3227.661	1221.75
3230.76	1207.75
3233.856	1213.75
3236.95	1194.75
3240.041	1195.75
3243.13	1179.75
3246.216	1177.75
3249.3	1162.75
3252.382	1159.75
3255.46	1154.75
3258.537	1145.75
3261.611	1142.75
3264.682	1136.75
3267.751	1128.75
3270.818	1120.75
3273.882	1127.75
3276.943	1118.75
3280.002	1096.75
3283.059	1101.75
3286.113	1074.75
3289.165	1066.75
3292.214	1059.75
3295.261	1029.75
3298.306	1020.75
3301.348	1017.75
3304.387	991.75
3307.425	979.75
3310.459	952.75
3313.492	949.75
3316.521	937.75
3319.549	931.75
3322.574	926.75
3325.597	914.75
3328.617	910.75
3331.635	885.75
3334.65	896.75
3337.663	886.75
3340.674	881.75
3343.682	869.75
3346.688	876.75
3349.691	884.75
3352.692	874.75
3355.691	864.75
3358.687	853.75
3361.681	844.75
3364.673	828.75
3367.662	814.75
3370.649	810.75
3373.633	788.75
3376.615	795.75
3379.595	786.75
3382.572	761.75
3385.547	758.75
3388.52	751.75
3391.49	744.75
3394.458	735.75
3397.424	724.75
3400.387	719.75
3403.348	714.75
3406.307	696.75
3409.263	695.75
3412.217	680.75
3415.168	675.75
3418.118	662.75
3421.065	657.75
3424.009	653.75
3426.951	644.75
3429.891	625.75
3432.829	617.75
3435.764	604.75
3438.697	597.75
3441.628	566.75
3444.557	561.75
3447.483	559.75
3450.407	538.75
3453.328	512.75
3456.247	503.75
3459.164	493.75
3462.079	476.75
3464.991	456.75
3467.902	441.75
3470.809	426.75
3473.715	418.75
3476.618	404.75
3479.519	390.75
3482.418	377.75
3485.315	367.75
3488.209	367.75
3491.101	343.75
3493.99	339.75
3496.878	329.75
3499.763	318.75
3502.646	300.75
3505.527	299.75
3508.405	276.75
3511.281	269.75
3514.155	260.75
3517.027	248.75
3519.897	232.75
3522.764	219.75
3525.629	206.75
3528.492	194.75
3531.352	183.75
3534.211	176.75
3537.067	165.75
3539.921	158.75
3542.773	140.75
3545.622	137.75
3548.469	130.75
3551.315	117.75
3554.157	111.75
3556.998	102.75
3559.837	91.75
3562.673	84.75
3565.507	81.75
3568.339	76.75
3571.169	74.75
3573.996	65.75
3576.822	57.75
3579.645	54.75
3582.466	45.75
3585.285	37.75
3588.101	37.75
3590.916	20.75
3593.728	26.75
3596.538	16.75
3599.346	10.75
3602.152	11.75
3604.956	2.75
3607.757	4.75
3610.556	-2.25
3613.354	-7.25
3616.149	-7.25
3618.942	-11.25
3621.732	-15.25
3624.521	-17.25
3627.307	-23.25
3630.092	-26.25
3632.874	-30.25
3635.654	-29.25
3638.432	-38.25
3641.208	-43.25
3643.982	-41.25
3646.753	-47.25
3649.523	-47.25
3652.29	-50.25
3655.055	-53.25
3657.818	-55.25
3660.579	-54.25
3663.338	-58.25
3666.095	-60.25
3668.849	-64.25
3671.602	-64.25
3674.352	-69.25
3677.101	-71.25
3679.847	-73.25
3682.591	-75.25
3685.333	-77.25
3688.073	-82.25
3690.811	-79.25
3693.547	-82.25
3696.281	-83.25
3699.013	-86.25
3701.742	-79.25
3704.47	-85.25
3707.195	-86.25
3709.919	-83.25
3712.64	-87.25
3715.359	-89.25
3718.076	-91.25
3720.792	-95.25
3723.505	-90.25
3726.216	-93.25
3728.925	-95.25
3731.632	-96.25
3734.336	-98.25
3737.039	-98.25
3739.74	-100.25
3742.439	-100.25
3745.136	-101.25
3747.83	-96.25
3750.523	-100.25
3753.213	-100.25
3755.902	-97.25
3758.589	-100.25
3761.273	-101.25
3763.956	-102.25
3766.636	-105.25
3769.315	-104.25
3771.991	-109.25
3774.665	-109.25
3777.338	-106.25
3780.008	-108.25
3782.677	-107.25
3785.343	-106.25
3788.007	-108.25
3790.67	-106.25
3793.33	-108.25
3795.989	-107.25
3798.645	-108.25
3801.299	-107.25
3803.952	-109.25
3806.602	-103.25
3809.251	-76.25
3811.897	-14.25
3814.542	-71.25
3817.184	-110.25
3819.825	-105.25
3822.463	-109.25
3825.1	-108.25
3827.735	-110.25
3830.367	-110.25
3832.998	-111.25
3835.627	-112.25
3838.253	-113.25
3840.878	-107.25
3843.501	-112.25
3846.122	-112.25
3848.741	-111.25
3851.358	-111.25
3853.973	-112.25
3856.586	-113.25
3859.197	-110.25
3861.806	-112.25
3864.414	-112.25
3867.019	-114.25
3869.622	-110.25
3872.224	-114.25
3874.823	-111.25
3877.421	-111.25
3880.016	-108.25
3882.61	-103.25
3885.202	-104.25
3887.792	-105.25
3890.38	-109.25
3892.966	-114.25
3895.55	-109.25
3898.132	-112.25
3900.713	-115.25
3903.291	-113.25
3905.868	-115.25
3908.442	-120.25
3911.015	-117.25
3913.586	-118.25
3916.155	-113.25
3918.722	-115.25
3921.287	-116.25
3923.85	-118.25
3926.411	-113.25
3928.971	-120.25
3931.528	-117.25
3934.084	-116.25
3936.638	-115.25
3939.19	-116.25
3941.74	-116.25
3944.288	-119.25
3946.834	-121.25
3949.378	-121.25
3951.921	-118.25
3954.462	-118.25
3957	-121.25
3959.537	-117.25
3962.072	-118.25
3964.606	-117.25
3967.137	-118.25
3969.667	-116.25
3972.194	-118.25
3974.72	-113.25
3977.244	-115.25
3979.766	-115.25
3982.286	-117.25
3984.805	-116.25
3987.321	-115.25
3989.836	-114.25
3992.349	-118.25
3994.86	-116.25
3997.369	-113.25
3999.877	-115.25
4002.382	-113.25
4004.886	-113.25
4007.388	-113.25
4009.888	-115.25
4012.386	-116.25
4014.883	-113.25
4017.377	-115.25
4019.87	-114.25
4022.361	-113.25
4024.85	-118.25
4027.338	-119.25
4029.823	-115.25
4032.307	-116.25
4034.789	-118.25
4037.269	-113.25
4039.747	-114.25
4042.224	-111.25
4044.699	-117.25
4047.172	-115.25
4049.643	-115.25
4052.112	-117.25
4054.58	-118.25
4057.046	-120.25
4059.51	-118.25
4061.972	-119.25
4064.432	-118.25
4066.891	-117.25
4069.348	-116.25
4071.803	-114.25
4074.256	-118.25
4076.708	-116.25
4079.158	-114.25
4081.606	-116.25
4084.052	-114.25
4086.497	-112.25
4088.939	-113.25
4091.38	-116.25
4093.819	-119.25
4096.257	-114.25
4098.693	-118.25
4101.127	-123.25
4103.559	-123.25
4105.989	-80.25
4108.418	-78.25
4110.845	-73.25
4113.27	-69.25
4115.694	-57.25
4118.115	-48.25
4120.535	-119.25
4122.954	-120.25
4125.37	-117.25
4127.785	-119.25
4130.198	-120.25
4132.609	-119.25
4135.019	-121.25
4137.427	-123.25
4139.833	-122.25
4142.237	-121.25
