Data from 1CFU1_B_RamanShift_1.txt Node
Date: Wed Jan 25 12:22:00 IST 2017
User: aro
Spectrometer: QEPB0276
Trigger mode: 0
Integration Time (sec): 5.000000E0
Scans to average: 1
Electric dark correction enabled: true
Nonlinearity correction enabled: false
Boxcar width: 0
XAxis mode: Raman Shifts
Number of Pixels in Spectrum: 1044
>>>>>Begin Spectral Data<<<<<
160.701	-43.62
166.742	-3.62
172.777	109.38
178.805	449.38
184.826	1197.38
190.841	2444.38
196.849	3812.38
202.85	4654.38
208.845	4819.38
214.833	4652.38
220.815	4497.38
226.789	4387.38
232.758	4246.38
238.719	4160.38
244.674	3985.38
250.623	3802.38
256.565	3618.38
262.5	3477.38
268.429	3329.38
274.351	3203.38
280.267	3092.38
286.176	2944.38
292.079	2856.38
297.975	2766.38
303.865	2684.38
309.748	2643.38
315.625	2568.38
321.495	2511.38
327.359	2487.38
333.217	2444.38
339.068	2431.38
344.912	2423.38
350.751	2406.38
356.583	2395.38
362.408	2389.38
368.227	2377.38
374.04	2407.38
379.847	2406.38
385.647	2396.38
391.44	2447.38
397.228	2463.38
403.009	2464.38
408.784	2458.38
414.553	2465.38
420.315	2504.38
426.071	2486.38
431.821	2472.38
437.565	2487.38
443.302	2486.38
449.033	2487.38
454.758	2462.38
460.477	2438.38
466.189	2445.38
471.896	2419.38
477.596	2422.38
483.29	2395.38
488.978	2417.38
494.66	2388.38
500.335	2346.38
506.005	2316.38
511.668	2283.38
517.325	2248.38
522.977	2201.38
528.622	2185.38
534.261	2132.38
539.894	2147.38
545.521	2118.38
551.141	2108.38
556.756	2100.38
562.365	2091.38
567.968	2083.38
573.565	2073.38
579.155	2055.38
584.74	2049.38
590.319	2015.38
595.892	2026.38
601.459	2001.38
607.02	2002.38
612.575	1974.38
618.124	1951.38
623.667	1936.38
629.204	1906.38
634.735	1908.38
640.261	1895.38
645.781	1887.38
651.294	1879.38
656.802	1856.38
662.304	1869.38
667.8	1858.38
673.29	1858.38
678.775	1828.38
684.254	1840.38
689.726	1833.38
695.193	1821.38
700.655	1800.38
706.11	1799.38
711.56	1768.38
717.004	1773.38
722.442	1758.38
727.874	1755.38
733.301	1739.38
738.722	1736.38
744.137	1728.38
749.547	1737.38
754.951	1732.38
760.349	1717.38
765.741	1724.38
771.128	1723.38
776.509	1718.38
781.885	1748.38
787.254	1710.38
792.618	1710.38
797.977	1689.38
803.33	1683.38
808.677	1667.38
814.019	1660.38
819.355	1640.38
824.686	1627.38
830.011	1632.38
835.33	1605.38
840.644	1618.38
845.952	1602.38
851.255	1596.38
856.552	1585.38
861.844	1578.38
867.13	1574.38
872.41	1548.38
877.686	1535.38
882.955	1528.38
888.219	1510.38
893.478	1496.38
898.731	1473.38
903.979	1437.38
909.221	1426.38
914.458	1446.38
919.69	1428.38
924.916	1433.38
930.136	1440.38
935.351	1412.38
940.561	1415.38
945.766	1405.38
950.965	1406.38
956.158	1390.38
961.347	1384.38
966.529	1363.38
971.707	1354.38
976.879	1333.38
982.046	1314.38
987.208	1302.38
992.364	1309.38
997.515	1308.38
1002.66	1324.38
1007.801	1329.38
1012.936	1358.38
1018.066	1349.38
1023.19	1368.38
1028.309	1372.38
1033.423	1377.38
1038.532	1358.38
1043.636	1321.38
1048.734	1329.38
1053.827	1329.38
1058.915	1309.38
1063.998	1298.38
1069.075	1293.38
1074.147	1299.38
1079.214	1309.38
1084.276	1315.38
1089.333	1321.38
1094.385	1337.38
1099.431	1351.38
1104.472	1353.38
1109.509	1344.38
1114.54	1329.38
1119.565	1307.38
1124.586	1308.38
1129.602	1290.38
1134.613	1284.38
1139.618	1277.38
1144.619	1275.38
1149.614	1274.38
1154.604	1284.38
1159.589	1303.38
1164.57	1299.38
1169.545	1300.38
1174.515	1306.38
1179.48	1303.38
1184.44	1301.38
1189.395	1302.38
1194.345	1290.38
1199.29	1290.38
1204.23	1278.38
1209.165	1282.38
1214.095	1295.38
1219.021	1296.38
1223.941	1298.38
1228.856	1325.38
1233.766	1328.38
1238.672	1342.38
1243.572	1328.38
1248.467	1315.38
1253.358	1302.38
1258.244	1304.38
1263.124	1262.38
1268	1245.38
1272.871	1236.38
1277.737	1223.38
1282.599	1227.38
1287.455	1226.38
1292.306	1229.38
1297.153	1248.38
1301.995	1264.38
1306.832	1244.38
1311.664	1246.38
1316.491	1264.38
1321.314	1261.38
1326.132	1250.38
1330.945	1243.38
1335.753	1223.38
1340.556	1221.38
1345.354	1209.38
1350.148	1202.38
1354.937	1197.38
1359.722	1181.38
1364.501	1163.38
1369.276	1161.38
1374.046	1164.38
1378.811	1162.38
1383.572	1148.38
1388.327	1143.38
1393.079	1148.38
1397.825	1140.38
1402.567	1146.38
1407.304	1114.38
1412.036	1109.38
1416.764	1116.38
1421.487	1109.38
1426.205	1107.38
1430.919	1136.38
1435.628	1133.38
1440.333	1156.38
1445.032	1168.38
1449.727	1173.38
1454.418	1164.38
1459.104	1181.38
1463.785	1169.38
1468.462	1149.38
1473.134	1151.38
1477.802	1152.38
1482.465	1141.38
1487.123	1128.38
1491.777	1153.38
1496.426	1143.38
1501.071	1155.38
1505.711	1160.38
1510.347	1165.38
1514.978	1178.38
1519.604	1199.38
1524.226	1195.38
1528.844	1191.38
1533.457	1195.38
1538.065	1187.38
1542.669	1194.38
1547.269	1191.38
1551.864	1191.38
1556.454	1214.38
1561.041	1197.38
1565.622	1222.38
1570.199	1230.38
1574.772	1240.38
1579.34	1276.38
1583.904	1295.38
1588.464	1320.38
1593.019	1330.38
1597.569	1332.38
1602.115	1345.38
1606.657	1366.38
1611.195	1377.38
1615.728	1375.38
1620.256	1396.38
1624.78	1411.38
1629.3	1439.38
1633.816	1452.38
1638.327	1472.38
1642.834	1489.38
1647.336	1526.38
1651.834	1529.38
1656.328	1528.38
1660.817	1501.38
1665.302	1471.38
1669.783	1435.38
1674.259	1419.38
1678.732	1386.38
1683.199	1337.38
1687.663	1298.38
1692.122	1250.38
1696.577	1201.38
1701.028	1144.38
1705.474	1119.38
1709.917	1080.38
1714.355	1080.38
1718.788	1057.38
1723.218	1042.38
1727.643	1030.38
1732.064	996.38
1736.481	965.38
1740.893	936.38
1745.301	921.38
1749.705	900.38
1754.105	888.38
1758.501	861.38
1762.893	839.38
1767.28	838.38
1771.663	830.38
1776.042	841.38
1780.417	829.38
1784.787	832.38
1789.154	837.38
1793.516	839.38
1797.874	827.38
1802.228	823.38
1806.578	816.38
1810.924	817.38
1815.266	785.38
1819.603	773.38
1823.937	768.38
1828.266	762.38
1832.591	748.38
1836.913	754.38
1841.23	756.38
1845.543	748.38
1849.852	759.38
1854.156	745.38
1858.457	751.38
1862.754	758.38
1867.047	761.38
1871.335	765.38
1875.62	760.38
1879.9	772.38
1884.177	760.38
1888.449	768.38
1892.718	760.38
1896.982	763.38
1901.243	759.38
1905.499	761.38
1909.752	760.38
1914	752.38
1918.245	760.38
1922.485	752.38
1926.722	769.38
1930.954	771.38
1935.183	766.38
1939.408	772.38
1943.628	763.38
1947.845	766.38
1952.058	771.38
1956.267	766.38
1960.472	760.38
1964.673	753.38
1968.87	735.38
1973.063	723.38
1977.252	729.38
1981.438	734.38
1985.619	729.38
1989.797	712.38
1993.971	729.38
1998.14	722.38
2002.306	725.38
2006.469	736.38
2010.627	739.38
2014.781	733.38
2018.932	736.38
2023.078	729.38
2027.221	729.38
2031.36	722.38
2035.495	718.38
2039.627	716.38
2043.754	712.38
2047.878	708.38
2051.998	714.38
2056.114	705.38
2060.226	721.38
2064.334	722.38
2068.439	725.38
2072.54	737.38
2076.637	725.38
2080.73	720.38
2084.82	727.38
2088.906	739.38
2092.988	738.38
2097.066	723.38
2101.14	729.38
2105.211	722.38
2109.278	712.38
2113.342	703.38
2117.401	710.38
2121.457	710.38
2125.509	701.38
2129.558	705.38
2133.602	689.38
2137.643	688.38
2141.681	695.38
2145.714	691.38
2149.744	675.38
2153.77	689.38
2157.793	669.38
2161.812	654.38
2165.827	646.38
2169.838	640.38
2173.846	637.38
2177.851	624.38
2181.851	622.38
2185.848	609.38
2189.841	621.38
2193.831	614.38
2197.817	603.38
2201.799	599.38
2205.778	597.38
2209.753	594.38
2213.725	575.38
2217.693	595.38
2221.657	603.38
2225.618	591.38
2229.575	592.38
2233.529	593.38
2237.479	576.38
2241.425	574.38
2245.368	570.38
2249.307	563.38
2253.243	553.38
2257.175	553.38
2261.104	540.38
2265.029	531.38
2268.95	527.38
2272.868	514.38
2276.783	508.38
2280.694	497.38
2284.601	503.38
2288.505	489.38
2292.405	489.38
2296.302	469.38
2300.195	469.38
2304.085	471.38
2307.971	451.38
2311.854	444.38
2315.734	447.38
2319.609	439.38
2323.482	436.38
2327.351	422.38
2331.216	424.38
2335.078	424.38
2338.937	416.38
2342.792	412.38
2346.643	412.38
2350.492	409.38
2354.336	408.38
2358.178	415.38
2362.015	409.38
2365.85	409.38
2369.681	404.38
2373.508	415.38
2377.333	421.38
2381.153	409.38
2384.971	409.38
2388.785	415.38
2392.595	411.38
2396.402	396.38
2400.206	406.38
2404.007	397.38
2407.804	405.38
2411.597	398.38
2415.388	397.38
2419.174	394.38
2422.958	401.38
2426.738	387.38
2430.515	392.38
2434.289	385.38
2438.059	387.38
2441.825	383.38
2445.589	388.38
2449.349	384.38
2453.106	388.38
2456.859	391.38
2460.61	377.38
2464.356	370.38
2468.1	363.38
2471.84	351.38
2475.577	359.38
2479.311	356.38
2483.041	362.38
2486.768	358.38
2490.492	362.38
2494.213	352.38
2497.93	354.38
2501.644	373.38
2505.355	369.38
2509.062	365.38
2512.766	362.38
2516.467	357.38
2520.165	349.38
2523.859	347.38
2527.551	347.38
2531.239	343.38
2534.923	342.38
2538.605	342.38
2542.283	334.38
2545.958	324.38
2549.63	339.38
2553.299	332.38
2556.964	335.38
2560.626	322.38
2564.285	330.38
2567.941	329.38
2571.594	331.38
2575.243	332.38
2578.89	322.38
2582.533	320.38
2586.173	309.38
2589.809	314.38
2593.443	306.38
2597.073	302.38
2600.701	299.38
2604.325	298.38
2607.946	297.38
2611.564	307.38
2615.178	293.38
2618.79	303.38
2622.398	299.38
2626.004	304.38
2629.606	282.38
2633.205	293.38
2636.801	286.38
2640.394	281.38
2643.983	274.38
2647.57	271.38
2651.153	276.38
2654.734	269.38
2658.311	273.38
2661.885	266.38
2665.456	266.38
2669.025	264.38
2672.589	264.38
2676.151	261.38
2679.71	257.38
2683.266	250.38
2686.819	260.38
2690.368	244.38
2693.915	248.38
2697.458	243.38
2700.999	248.38
2704.536	239.38
2708.071	239.38
2711.602	240.38
2715.13	226.38
2718.656	228.38
2722.178	226.38
2725.697	221.38
2729.214	233.38
2732.727	231.38
2736.237	236.38
2739.744	242.38
2743.249	251.38
2746.75	245.38
2750.248	243.38
2753.743	240.38
2757.236	237.38
2760.725	232.38
2764.211	233.38
2767.695	224.38
2771.175	214.38
2774.652	227.38
2778.127	220.38
2781.598	216.38
2785.067	224.38
2788.532	222.38
2791.995	225.38
2795.455	223.38
2798.911	229.38
2802.365	229.38
2805.816	227.38
2809.264	233.38
2812.709	233.38
2816.151	224.38
2819.59	231.38
2823.026	225.38
2826.46	229.38
2829.89	235.38
2833.318	221.38
2836.742	229.38
2840.164	226.38
2843.583	229.38
2846.999	238.38
2850.412	232.38
2853.822	243.38
2857.229	250.38
2860.634	245.38
2864.035	245.38
2867.434	256.38
2870.83	263.38
2874.223	255.38
2877.613	265.38
2881	259.38
2884.385	258.38
2887.766	260.38
2891.145	257.38
2894.521	254.38
2897.894	268.38
2901.264	266.38
2904.631	268.38
2907.996	270.38
2911.358	263.38
2914.717	276.38
2918.073	283.38
2921.426	286.38
2924.777	286.38
2928.124	292.38
2931.469	304.38
2934.811	293.38
2938.15	298.38
2941.487	308.38
2944.821	310.38
2948.152	312.38
2951.48	319.38
2954.805	320.38
2958.128	332.38
2961.447	335.38
2964.765	346.38
2968.079	348.38
2971.39	354.38
2974.699	354.38
2978.005	368.38
2981.308	384.38
2984.609	399.38
2987.907	396.38
2991.202	414.38
2994.494	428.38
2997.784	437.38
3001.07	440.38
3004.355	462.38
3007.636	467.38
3010.915	472.38
3014.191	481.38
3017.464	495.38
3020.734	499.38
3024.002	500.38
3027.267	511.38
3030.53	536.38
3033.789	538.38
3037.046	539.38
3040.301	556.38
3043.552	567.38
3046.801	581.38
3050.048	601.38
3053.291	614.38
3056.532	630.38
3059.771	650.38
3063.006	670.38
3066.239	699.38
3069.469	715.38
3072.697	736.38
3075.922	745.38
3079.144	777.38
3082.364	777.38
3085.581	823.38
3088.795	823.38
3092.007	836.38
3095.216	865.38
3098.423	887.38
3101.627	904.38
3104.828	918.38
3108.026	943.38
3111.222	961.38
3114.416	974.38
3117.607	1004.38
3120.795	1025.38
3123.98	1044.38
3127.163	1079.38
3130.344	1100.38
3133.521	1130.38
3136.696	1148.38
3139.869	1166.38
3143.039	1186.38
3146.206	1205.38
3149.371	1217.38
3152.533	1226.38
3155.693	1249.38
3158.85	1252.38
3162.005	1255.38
3165.157	1263.38
3168.306	1266.38
3171.453	1272.38
3174.597	1269.38
3177.739	1277.38
3180.878	1267.38
3184.014	1282.38
3187.149	1288.38
3190.28	1295.38
3193.409	1295.38
3196.536	1307.38
3199.659	1302.38
3202.781	1306.38
3205.9	1300.38
3209.016	1301.38
3212.13	1305.38
3215.241	1314.38
3218.35	1307.38
3221.456	1283.38
3224.56	1262.38
3227.661	1252.38
3230.76	1245.38
3233.856	1239.38
3236.95	1215.38
3240.041	1219.38
3243.13	1195.38
3246.216	1192.38
3249.3	1180.38
3252.382	1166.38
3255.46	1175.38
3258.537	1171.38
3261.611	1159.38
3264.682	1155.38
3267.751	1169.38
3270.818	1150.38
3273.882	1150.38
3276.943	1153.38
3280.002	1136.38
3283.059	1116.38
3286.113	1109.38
3289.165	1098.38
3292.214	1076.38
3295.261	1063.38
3298.306	1045.38
3301.348	1015.38
3304.387	998.38
3307.425	988.38
3310.459	981.38
3313.492	964.38
3316.521	953.38
3319.549	946.38
3322.574	926.38
3325.597	948.38
3328.617	924.38
3331.635	926.38
3334.65	915.38
3337.663	912.38
3340.674	900.38
3343.682	914.38
3346.688	904.38
3349.691	895.38
3352.692	897.38
3355.691	884.38
3358.687	863.38
3361.681	858.38
3364.673	851.38
3367.662	832.38
3370.649	833.38
3373.633	828.38
3376.615	810.38
3379.595	800.38
3382.572	784.38
3385.547	770.38
3388.52	775.38
3391.49	750.38
3394.458	743.38
3397.424	734.38
3400.387	734.38
3403.348	712.38
3406.307	705.38
3409.263	697.38
3412.217	700.38
3415.168	695.38
3418.118	680.38
3421.065	677.38
3424.009	660.38
3426.951	655.38
3429.891	659.38
3432.829	628.38
3435.764	622.38
3438.697	619.38
3441.628	592.38
3444.557	574.38
3447.483	570.38
3450.407	545.38
3453.328	532.38
3456.247	514.38
3459.164	500.38
3462.079	484.38
3464.991	468.38
3467.902	451.38
3470.809	435.38
3473.715	429.38
3476.618	415.38
3479.519	409.38
3482.418	394.38
3485.315	388.38
3488.209	369.38
3491.101	357.38
3493.99	355.38
3496.878	338.38
3499.763	328.38
3502.646	315.38
3505.527	294.38
3508.405	298.38
3511.281	282.38
3514.155	268.38
3517.027	263.38
3519.897	250.38
3522.764	240.38
3525.629	219.38
3528.492	210.38
3531.352	193.38
3534.211	185.38
3537.067	176.38
3539.921	168.38
3542.773	153.38
3545.622	144.38
3548.469	139.38
3551.315	120.38
3554.157	119.38
3556.998	109.38
3559.837	100.38
3562.673	101.38
3565.507	88.38
3568.339	86.38
3571.169	79.38
3573.996	73.38
3576.822	66.38
3579.645	60.38
3582.466	52.38
3585.285	44.38
3588.101	48.38
3590.916	32.38
3593.728	24.38
3596.538	23.38
3599.346	15.38
3602.152	15.38
3604.956	4.38
3607.757	-1.62
3610.556	0.38
3613.354	-0.62
3616.149	-13.62
3618.942	-7.62
3621.732	-16.62
3624.521	-13.62
3627.307	-18.62
3630.092	-27.62
3632.874	-30.62
3635.654	-27.62
3638.432	-36.62
3641.208	-38.62
3643.982	-42.62
3646.753	-41.62
3649.523	-46.62
3652.29	-44.62
3655.055	-49.62
3657.818	-52.62
3660.579	-51.62
3663.338	-58.62
3666.095	-58.62
3668.849	-66.62
3671.602	-67.62
3674.352	-68.62
3677.101	-72.62
3679.847	-74.62
3682.591	-75.62
3685.333	-76.62
3688.073	-81.62
3690.811	-75.62
3693.547	-85.62
3696.281	-82.62
3699.013	-83.62
3701.742	-82.62
3704.47	-85.62
3707.195	-86.62
3709.919	-88.62
3712.64	-91.62
3715.359	-89.62
3718.076	-93.62
3720.792	-95.62
3723.505	-95.62
3726.216	-98.62
3728.925	-96.62
3731.632	-98.62
3734.336	-98.62
3737.039	-99.62
3739.74	-100.62
3742.439	-97.62
3745.136	-98.62
3747.83	-96.62
3750.523	-94.62
3753.213	-99.62
3755.902	-102.62
3758.589	-105.62
3761.273	-105.62
3763.956	-104.62
3766.636	-111.62
3769.315	-106.62
3771.991	-108.62
3774.665	-116.62
3777.338	-107.62
3780.008	-107.62
3782.677	-109.62
3785.343	-108.62
3788.007	-109.62
3790.67	-107.62
3793.33	-109.62
3795.989	-104.62
3798.645	-108.62
3801.299	-109.62
3803.952	-109.62
3806.602	-108.62
3809.251	-111.62
3811.897	-113.62
3814.542	-113.62
3817.184	-115.62
3819.825	-111.62
3822.463	-115.62
3825.1	-109.62
3827.735	-113.62
3830.367	-112.62
3832.998	-110.62
3835.627	-113.62
3838.253	-114.62
3840.878	-111.62
3843.501	-113.62
3846.122	-117.62
3848.741	-114.62
3851.358	-116.62
3853.973	-117.62
3856.586	-118.62
3859.197	-116.62
3861.806	-118.62
3864.414	-116.62
3867.019	-116.62
3869.622	-114.62
3872.224	-116.62
3874.823	-108.62
3877.421	-111.62
3880.016	-104.62
3882.61	-99.62
3885.202	-103.62
3887.792	-106.62
3890.38	-112.62
3892.966	-117.62
3895.55	-116.62
3898.132	-122.62
3900.713	-120.62
3903.291	-118.62
3905.868	-120.62
3908.442	-121.62
3911.015	-117.62
3913.586	-121.62
3916.155	-115.62
3918.722	-116.62
3921.287	-115.62
3923.85	-122.62
3926.411	-115.62
3928.971	-119.62
3931.528	-118.62
3934.084	-122.62
3936.638	-125.62
3939.19	-123.62
3941.74	-119.62
3944.288	-124.62
3946.834	-124.62
3949.378	-123.62
3951.921	-121.62
3954.462	-124.62
3957	-120.62
3959.537	-118.62
3962.072	-117.62
3964.606	-116.62
3967.137	-117.62
3969.667	-120.62
3972.194	-116.62
3974.72	-118.62
3977.244	-119.62
3979.766	-119.62
3982.286	-122.62
3984.805	-122.62
3987.321	-122.62
3989.836	-119.62
3992.349	-117.62
3994.86	-119.62
3997.369	-115.62
3999.877	-116.62
4002.382	-115.62
4004.886	-116.62
4007.388	-113.62
4009.888	-115.62
4012.386	-119.62
4014.883	-118.62
4017.377	-117.62
4019.87	-118.62
4022.361	-119.62
4024.85	-120.62
4027.338	-124.62
4029.823	-121.62
4032.307	-118.62
4034.789	-122.62
4037.269	-118.62
4039.747	-121.62
4042.224	-117.62
4044.699	-122.62
4047.172	-117.62
4049.643	-117.62
4052.112	-116.62
4054.58	-119.62
4057.046	-118.62
4059.51	-123.62
4061.972	-121.62
4064.432	-123.62
4066.891	-122.62
4069.348	-123.62
4071.803	-120.62
4074.256	-125.62
4076.708	-122.62
4079.158	-120.62
4081.606	-119.62
4084.052	-121.62
4086.497	-119.62
4088.939	-117.62
4091.38	-118.62
4093.819	-121.62
4096.257	-120.62
4098.693	-120.62
4101.127	-123.62
4103.559	-123.62
4105.989	-77.62
4108.418	-78.62
4110.845	-75.62
4113.27	-68.62
4115.694	-65.62
4118.115	-53.62
4120.535	-121.62
4122.954	-122.62
4125.37	-117.62
4127.785	-118.62
4130.198	-125.62
4132.609	-121.62
4135.019	-128.62
4137.427	-126.62
4139.833	-127.62
4142.237	-128.62
