Data from Bacilus_dil11_B1_RamanShift_1.txt Node
Date: Wed Mar 01 12:51:17 IST 2017
User: aro
Spectrometer: QEPB0276
Trigger mode: 0
Integration Time (sec): 5.000000E0
Scans to average: 1
Electric dark correction enabled: true
Nonlinearity correction enabled: false
Boxcar width: 0
XAxis mode: Raman Shifts
Number of Pixels in Spectrum: 1044
>>>>>Begin Spectral Data<<<<<
160.701	-21.88
166.742	-0.88
172.777	77.12
178.805	321.12
184.826	892.12
190.841	1861.12
196.849	2945.12
202.85	3662.12
208.845	3802.12
214.833	3651.12
220.815	3521.12
226.789	3417.12
232.758	3307.12
238.719	3187.12
244.674	3087.12
250.623	2923.12
256.565	2784.12
262.5	2658.12
268.429	2488.12
274.351	2384.12
280.267	2293.12
286.176	2186.12
292.079	2126.12
297.975	2034.12
303.865	1985.12
309.748	1918.12
315.625	1858.12
321.495	1813.12
327.359	1791.12
333.217	1788.12
339.068	1757.12
344.912	1740.12
350.751	1763.12
356.583	1759.12
362.408	1748.12
368.227	1742.12
374.04	1760.12
379.847	1777.12
385.647	1788.12
391.44	1790.12
397.228	1807.12
403.009	1804.12
408.784	1809.12
414.553	1822.12
420.315	1828.12
426.071	1818.12
431.821	1818.12
437.565	1829.12
443.302	1817.12
449.033	1794.12
454.758	1782.12
460.477	1777.12
466.189	1767.12
471.896	1764.12
477.596	1758.12
483.29	1728.12
488.978	1720.12
494.66	1729.12
500.335	1703.12
506.005	1679.12
511.668	1628.12
517.325	1587.12
522.977	1544.12
528.622	1540.12
534.261	1508.12
539.894	1490.12
545.521	1488.12
551.141	1469.12
556.756	1450.12
562.365	1440.12
567.968	1443.12
573.565	1398.12
579.155	1409.12
584.74	1374.12
590.319	1371.12
595.892	1374.12
601.459	1359.12
607.02	1350.12
612.575	1339.12
618.124	1319.12
623.667	1309.12
629.204	1301.12
634.735	1280.12
640.261	1254.12
645.781	1252.12
651.294	1248.12
656.802	1215.12
662.304	1242.12
667.8	1221.12
673.29	1220.12
678.775	1219.12
684.254	1188.12
689.726	1187.12
695.193	1191.12
700.655	1187.12
706.11	1173.12
711.56	1155.12
717.004	1155.12
722.442	1153.12
727.874	1140.12
733.301	1128.12
738.722	1118.12
744.137	1109.12
749.547	1104.12
754.951	1100.12
760.349	1100.12
765.741	1090.12
771.128	1095.12
776.509	1099.12
781.885	1095.12
787.254	1094.12
792.618	1094.12
797.977	1082.12
803.33	1083.12
808.677	1065.12
814.019	1041.12
819.355	1038.12
824.686	1016.12
830.011	995.12
835.33	1005.12
840.644	991.12
845.952	975.12
851.255	981.12
856.552	965.12
861.844	951.12
867.13	940.12
872.41	935.12
877.686	932.12
882.955	916.12
888.219	916.12
893.478	884.12
898.731	876.12
903.979	859.12
909.221	846.12
914.458	829.12
919.69	830.12
924.916	807.12
930.136	815.12
935.351	804.12
940.561	812.12
945.766	795.12
950.965	796.12
956.158	803.12
961.347	789.12
966.529	793.12
971.707	755.12
976.879	742.12
982.046	743.12
987.208	737.12
992.364	728.12
997.515	737.12
1002.66	742.12
1007.801	729.12
1012.936	740.12
1018.066	744.12
1023.19	742.12
1028.309	753.12
1033.423	764.12
1038.532	767.12
1043.636	745.12
1048.734	753.12
1053.827	743.12
1058.915	741.12
1063.998	726.12
1069.075	711.12
1074.147	719.12
1079.214	720.12
1084.276	731.12
1089.333	716.12
1094.385	736.12
1099.431	736.12
1104.472	737.12
1109.509	737.12
1114.54	731.12
1119.565	723.12
1124.586	717.12
1129.602	716.12
1134.613	683.12
1139.618	685.12
1144.619	688.12
1149.614	688.12
1154.604	706.12
1159.589	699.12
1164.57	695.12
1169.545	698.12
1174.515	704.12
1179.48	715.12
1184.44	700.12
1189.395	702.12
1194.345	686.12
1199.29	706.12
1204.23	700.12
1209.165	694.12
1214.095	672.12
1219.021	686.12
1223.941	699.12
1228.856	697.12
1233.766	704.12
1238.672	710.12
1243.572	705.12
1248.467	694.12
1253.358	704.12
1258.244	689.12
1263.124	677.12
1268	670.12
1272.871	650.12
1277.737	651.12
1282.599	653.12
1287.455	650.12
1292.306	644.12
1297.153	649.12
1301.995	657.12
1306.832	651.12
1311.664	648.12
1316.491	668.12
1321.314	662.12
1326.132	643.12
1330.945	645.12
1335.753	634.12
1340.556	623.12
1345.354	604.12
1350.148	589.12
1354.937	582.12
1359.722	579.12
1364.501	594.12
1369.276	608.12
1374.046	608.12
1378.811	625.12
1383.572	628.12
1388.327	623.12
1393.079	627.12
1397.825	614.12
1402.567	583.12
1407.304	588.12
1412.036	579.12
1416.764	580.12
1421.487	577.12
1426.205	564.12
1430.919	576.12
1435.628	568.12
1440.333	582.12
1445.032	583.12
1449.727	580.12
1454.418	595.12
1459.104	578.12
1463.785	587.12
1468.462	587.12
1473.134	578.12
1477.802	565.12
1482.465	570.12
1487.123	569.12
1491.777	570.12
1496.426	577.12
1501.071	584.12
1505.711	588.12
1510.347	596.12
1514.978	608.12
1519.604	622.12
1524.226	620.12
1528.844	651.12
1533.457	640.12
1538.065	633.12
1542.669	640.12
1547.269	640.12
1551.864	642.12
1556.454	650.12
1561.041	648.12
1565.622	653.12
1570.199	670.12
1574.772	677.12
1579.34	684.12
1583.904	707.12
1588.464	718.12
1593.019	737.12
1597.569	755.12
1602.115	767.12
1606.657	777.12
1611.195	793.12
1615.728	805.12
1620.256	812.12
1624.78	830.12
1629.3	829.12
1633.816	858.12
1638.327	861.12
1642.834	860.12
1647.336	881.12
1651.834	876.12
1656.328	874.12
1660.817	869.12
1665.302	848.12
1669.783	825.12
1674.259	802.12
1678.732	764.12
1683.199	745.12
1687.663	703.12
1692.122	658.12
1696.577	610.12
1701.028	610.12
1705.474	589.12
1709.917	580.12
1714.355	552.12
1718.788	535.12
1723.218	512.12
1727.643	484.12
1732.064	482.12
1736.481	455.12
1740.893	428.12
1745.301	415.12
1749.705	398.12
1754.105	377.12
1758.501	361.12
1762.893	350.12
1767.28	343.12
1771.663	332.12
1776.042	324.12
1780.417	327.12
1784.787	319.12
1789.154	331.12
1793.516	318.12
1797.874	332.12
1802.228	328.12
1806.578	326.12
1810.924	325.12
1815.266	317.12
1819.603	305.12
1823.937	305.12
1828.266	297.12
1832.591	283.12
1836.913	284.12
1841.23	275.12
1845.543	276.12
1849.852	271.12
1854.156	272.12
1858.457	263.12
1862.754	271.12
1867.047	271.12
1871.335	263.12
1875.62	269.12
1879.9	270.12
1884.177	269.12
1888.449	268.12
1892.718	271.12
1896.982	262.12
1901.243	268.12
1905.499	268.12
1909.752	262.12
1914	261.12
1918.245	261.12
1922.485	260.12
1926.722	267.12
1930.954	272.12
1935.183	272.12
1939.408	280.12
1943.628	288.12
1947.845	287.12
1952.058	278.12
1956.267	276.12
1960.472	277.12
1964.673	280.12
1968.87	267.12
1973.063	271.12
1977.252	274.12
1981.438	264.12
1985.619	262.12
1989.797	257.12
1993.971	268.12
1998.14	260.12
2002.306	263.12
2006.469	261.12
2010.627	266.12
2014.781	266.12
2018.932	267.12
2023.078	268.12
2027.221	272.12
2031.36	270.12
2035.495	259.12
2039.627	255.12
2043.754	245.12
2047.878	261.12
2051.998	262.12
2056.114	266.12
2060.226	264.12
2064.334	265.12
2068.439	264.12
2072.54	261.12
2076.637	267.12
2080.73	271.12
2084.82	282.12
2088.906	289.12
2092.988	289.12
2097.066	281.12
2101.14	282.12
2105.211	281.12
2109.278	284.12
2113.342	274.12
2117.401	269.12
2121.457	274.12
2125.509	271.12
2129.558	263.12
2133.602	260.12
2137.643	261.12
2141.681	263.12
2145.714	254.12
2149.744	266.12
2153.77	255.12
2157.793	250.12
2161.812	255.12
2165.827	249.12
2169.838	241.12
2173.846	235.12
2177.851	224.12
2181.851	224.12
2185.848	226.12
2189.841	216.12
2193.831	217.12
2197.817	207.12
2201.799	207.12
2205.778	204.12
2209.753	203.12
2213.725	194.12
2217.693	197.12
2221.657	192.12
2225.618	197.12
2229.575	190.12
2233.529	191.12
2237.479	189.12
2241.425	188.12
2245.368	184.12
2249.307	181.12
2253.243	181.12
2257.175	172.12
2261.104	168.12
2265.029	161.12
2268.95	156.12
2272.868	155.12
2276.783	156.12
2280.694	145.12
2284.601	150.12
2288.505	138.12
2292.405	143.12
2296.302	139.12
2300.195	138.12
2304.085	123.12
2307.971	125.12
2311.854	130.12
2315.734	130.12
2319.609	117.12
2323.482	118.12
2327.351	116.12
2331.216	115.12
2335.078	113.12
2338.937	107.12
2342.792	107.12
2346.643	102.12
2350.492	109.12
2354.336	105.12
2358.178	103.12
2362.015	100.12
2365.85	106.12
2369.681	93.12
2373.508	98.12
2377.333	103.12
2381.153	102.12
2384.971	98.12
2388.785	97.12
2392.595	98.12
2396.402	96.12
2400.206	89.12
2404.007	96.12
2407.804	88.12
2411.597	84.12
2415.388	89.12
2419.174	87.12
2422.958	89.12
2426.738	83.12
2430.515	81.12
2434.289	85.12
2438.059	72.12
2441.825	76.12
2445.589	68.12
2449.349	81.12
2453.106	74.12
2456.859	81.12
2460.61	78.12
2464.356	69.12
2468.1	64.12
2471.84	70.12
2475.577	68.12
2479.311	58.12
2483.041	67.12
2486.768	71.12
2490.492	68.12
2494.213	67.12
2497.93	68.12
2501.644	64.12
2505.355	75.12
2509.062	62.12
2512.766	62.12
2516.467	66.12
2520.165	63.12
2523.859	67.12
2527.551	54.12
2531.239	62.12
2534.923	61.12
2538.605	61.12
2542.283	61.12
2545.958	58.12
2549.63	64.12
2553.299	59.12
2556.964	52.12
2560.626	53.12
2564.285	62.12
2567.941	54.12
2571.594	53.12
2575.243	57.12
2578.89	50.12
2582.533	55.12
2586.173	45.12
2589.809	46.12
2593.443	53.12
2597.073	53.12
2600.701	46.12
2604.325	38.12
2607.946	47.12
2611.564	45.12
2615.178	45.12
2618.79	46.12
2622.398	53.12
2626.004	44.12
2629.606	44.12
2633.205	45.12
2636.801	47.12
2640.394	36.12
2643.983	39.12
2647.57	34.12
2651.153	32.12
2654.734	41.12
2658.311	36.12
2661.885	31.12
2665.456	35.12
2669.025	28.12
2672.589	32.12
2676.151	24.12
2679.71	31.12
2683.266	27.12
2686.819	36.12
2690.368	29.12
2693.915	34.12
2697.458	29.12
2700.999	36.12
2704.536	27.12
2708.071	21.12
2711.602	17.12
2715.13	20.12
2718.656	23.12
2722.178	25.12
2725.697	24.12
2729.214	32.12
2732.727	31.12
2736.237	32.12
2739.744	24.12
2743.249	31.12
2746.75	34.12
2750.248	30.12
2753.743	30.12
2757.236	35.12
2760.725	38.12
2764.211	39.12
2767.695	43.12
2771.175	44.12
2774.652	40.12
2778.127	39.12
2781.598	39.12
2785.067	39.12
2788.532	37.12
2791.995	37.12
2795.455	40.12
2798.911	47.12
2802.365	50.12
2805.816	52.12
2809.264	49.12
2812.709	55.12
2816.151	52.12
2819.59	42.12
2823.026	49.12
2826.46	53.12
2829.89	54.12
2833.318	62.12
2836.742	63.12
2840.164	66.12
2843.583	71.12
2846.999	65.12
2850.412	63.12
2853.822	68.12
2857.229	66.12
2860.634	77.12
2864.035	86.12
2867.434	87.12
2870.83	85.12
2874.223	88.12
2877.613	87.12
2881	92.12
2884.385	97.12
2887.766	96.12
2891.145	109.12
2894.521	108.12
2897.894	106.12
2901.264	108.12
2904.631	110.12
2907.996	113.12
2911.358	114.12
2914.717	125.12
2918.073	125.12
2921.426	129.12
2924.777	130.12
2928.124	134.12
2931.469	141.12
2934.811	150.12
2938.15	157.12
2941.487	160.12
2944.821	161.12
2948.152	176.12
2951.48	181.12
2954.805	177.12
2958.128	181.12
2961.447	185.12
2964.765	194.12
2968.079	201.12
2971.39	206.12
2974.699	220.12
2978.005	227.12
2981.308	226.12
2984.609	252.12
2987.907	262.12
2991.202	272.12
2994.494	285.12
2997.784	298.12
3001.07	288.12
3004.355	309.12
3007.636	322.12
3010.915	341.12
3014.191	342.12
3017.464	354.12
3020.734	366.12
3024.002	369.12
3027.267	383.12
3030.53	399.12
3033.789	393.12
3037.046	416.12
3040.301	422.12
3043.552	439.12
3046.801	456.12
3050.048	466.12
3053.291	475.12
3056.532	495.12
3059.771	524.12
3063.006	520.12
3066.239	543.12
3069.469	560.12
3072.697	585.12
3075.922	614.12
3079.144	624.12
3082.364	650.12
3085.581	656.12
3088.795	689.12
3092.007	710.12
3095.216	724.12
3098.423	736.12
3101.627	755.12
3104.828	785.12
3108.026	811.12
3111.222	803.12
3114.416	844.12
3117.607	868.12
3120.795	895.12
3123.98	903.12
3127.163	922.12
3130.344	949.12
3133.521	974.12
3136.696	992.12
3139.869	1015.12
3143.039	1033.12
3146.206	1061.12
3149.371	1074.12
3152.533	1091.12
3155.693	1102.12
3158.85	1108.12
3162.005	1118.12
3165.157	1112.12
3168.306	1129.12
3171.453	1136.12
3174.597	1143.12
3177.739	1133.12
3180.878	1148.12
3184.014	1152.12
3187.149	1164.12
3190.28	1151.12
3193.409	1161.12
3196.536	1170.12
3199.659	1183.12
3202.781	1180.12
3205.9	1189.12
3209.016	1179.12
3212.13	1185.12
3215.241	1193.12
3218.35	1190.12
3221.456	1184.12
3224.56	1172.12
3227.661	1174.12
3230.76	1157.12
3233.856	1153.12
3236.95	1130.12
3240.041	1125.12
3243.13	1111.12
3246.216	1119.12
3249.3	1097.12
3252.382	1086.12
3255.46	1077.12
3258.537	1087.12
3261.611	1078.12
3264.682	1078.12
3267.751	1081.12
3270.818	1062.12
3273.882	1064.12
3276.943	1054.12
3280.002	1036.12
3283.059	1047.12
3286.113	1025.12
3289.165	1025.12
3292.214	999.12
3295.261	980.12
3298.306	990.12
3301.348	940.12
3304.387	938.12
3307.425	938.12
3310.459	907.12
3313.492	911.12
3316.521	905.12
3319.549	877.12
3322.574	872.12
3325.597	872.12
3328.617	865.12
3331.635	863.12
3334.65	856.12
3337.663	830.12
3340.674	826.12
3343.682	826.12
3346.688	834.12
3349.691	829.12
3352.692	832.12
3355.691	816.12
3358.687	831.12
3361.681	821.12
3364.673	808.12
3367.662	798.12
3370.649	795.12
3373.633	765.12
3376.615	754.12
3379.595	752.12
3382.572	743.12
3385.547	741.12
3388.52	740.12
3391.49	724.12
3394.458	705.12
3397.424	703.12
3400.387	693.12
3403.348	684.12
3406.307	679.12
3409.263	679.12
3412.217	660.12
3415.168	672.12
3418.118	652.12
3421.065	629.12
3424.009	621.12
3426.951	627.12
3429.891	620.12
3432.829	613.12
3435.764	604.12
3438.697	582.12
3441.628	572.12
3444.557	563.12
3447.483	545.12
3450.407	539.12
3453.328	524.12
3456.247	513.12
3459.164	499.12
3462.079	482.12
3464.991	469.12
3467.902	450.12
3470.809	440.12
3473.715	430.12
3476.618	413.12
3479.519	399.12
3482.418	396.12
3485.315	388.12
3488.209	367.12
3491.101	365.12
3493.99	354.12
3496.878	341.12
3499.763	335.12
3502.646	322.12
3505.527	311.12
3508.405	299.12
3511.281	290.12
3514.155	288.12
3517.027	273.12
3519.897	264.12
3522.764	253.12
3525.629	231.12
3528.492	226.12
3531.352	209.12
3534.211	199.12
3537.067	193.12
3539.921	190.12
3542.773	172.12
3545.622	172.12
3548.469	160.12
3551.315	152.12
3554.157	137.12
3556.998	131.12
3559.837	121.12
3562.673	112.12
3565.507	118.12
3568.339	114.12
3571.169	101.12
3573.996	96.12
3576.822	87.12
3579.645	84.12
3582.466	75.12
3585.285	72.12
3588.101	62.12
3590.916	61.12
3593.728	57.12
3596.538	47.12
3599.346	45.12
3602.152	43.12
3604.956	35.12
3607.757	29.12
3610.556	25.12
3613.354	20.12
3616.149	17.12
3618.942	18.12
3621.732	9.12
3624.521	11.12
3627.307	1.12
3630.092	-0.88
3632.874	-1.88
3635.654	-3.88
3638.432	-4.88
3641.208	-5.88
3643.982	-13.88
3646.753	-10.88
3649.523	-15.88
3652.29	-22.88
3655.055	-22.88
3657.818	-26.88
3660.579	-27.88
3663.338	-35.88
3666.095	-35.88
3668.849	-36.88
3671.602	-41.88
3674.352	-35.88
3677.101	-39.88
3679.847	-47.88
3682.591	-46.88
3685.333	-45.88
3688.073	-53.88
3690.811	-53.88
3693.547	-54.88
3696.281	-55.88
3699.013	-53.88
3701.742	-53.88
3704.47	-60.88
3707.195	-58.88
3709.919	-63.88
3712.64	-60.88
3715.359	-68.88
3718.076	-63.88
3720.792	-70.88
3723.505	-70.88
3726.216	-65.88
3728.925	-67.88
3731.632	-70.88
3734.336	-71.88
3737.039	-70.88
3739.74	-66.88
3742.439	-71.88
3745.136	-72.88
3747.83	-69.88
3750.523	-82.88
3753.213	-73.88
3755.902	-74.88
3758.589	-79.88
3761.273	-75.88
3763.956	-75.88
3766.636	-76.88
3769.315	-75.88
3771.991	-72.88
3774.665	-79.88
3777.338	-81.88
3780.008	-82.88
3782.677	-80.88
3785.343	-81.88
3788.007	-78.88
3790.67	-78.88
3793.33	-72.88
3795.989	-73.88
3798.645	-77.88
3801.299	-80.88
3803.952	-86.88
3806.602	-89.88
3809.251	-82.88
3811.897	-80.88
3814.542	-82.88
3817.184	-84.88
3819.825	-79.88
3822.463	-77.88
3825.1	-78.88
3827.735	-79.88
3830.367	-85.88
3832.998	-88.88
3835.627	-86.88
3838.253	-86.88
3840.878	-83.88
3843.501	-80.88
3846.122	-81.88
3848.741	-81.88
3851.358	-80.88
3853.973	-86.88
3856.586	-84.88
3859.197	-88.88
3861.806	-83.88
3864.414	-88.88
3867.019	-77.88
3869.622	-84.88
3872.224	-82.88
3874.823	-82.88
3877.421	-85.88
3880.016	-76.88
3882.61	-73.88
3885.202	-72.88
3887.792	-72.88
3890.38	-82.88
3892.966	-86.88
3895.55	-82.88
3898.132	-84.88
3900.713	-85.88
3903.291	-88.88
3905.868	-86.88
3908.442	-89.88
3911.015	-87.88
3913.586	-90.88
3916.155	-91.88
3918.722	-86.88
3921.287	-84.88
3923.85	-82.88
3926.411	-87.88
3928.971	-85.88
3931.528	-87.88
3934.084	-86.88
3936.638	-85.88
3939.19	-91.88
3941.74	-87.88
3944.288	-87.88
3946.834	-87.88
3949.378	-89.88
3951.921	-85.88
3954.462	-83.88
3957	-89.88
3959.537	-84.88
3962.072	-91.88
3964.606	-87.88
3967.137	-91.88
3969.667	-86.88
3972.194	-89.88
3974.72	-83.88
3977.244	-86.88
3979.766	-85.88
3982.286	-83.88
3984.805	-81.88
3987.321	-87.88
3989.836	-84.88
3992.349	-86.88
3994.86	-87.88
3997.369	-89.88
3999.877	-87.88
4002.382	-85.88
4004.886	-82.88
4007.388	-85.88
4009.888	-84.88
4012.386	-88.88
4014.883	-89.88
4017.377	-84.88
4019.87	-89.88
4022.361	-86.88
4024.85	-86.88
4027.338	-87.88
4029.823	-90.88
4032.307	-87.88
4034.789	-85.88
4037.269	-86.88
4039.747	-83.88
4042.224	-88.88
4044.699	-82.88
4047.172	-88.88
4049.643	-88.88
4052.112	-88.88
4054.58	-89.88
4057.046	-84.88
4059.51	-88.88
4061.972	-86.88
4064.432	-85.88
4066.891	-83.88
4069.348	-88.88
4071.803	-91.88
4074.256	-91.88
4076.708	-96.88
4079.158	-86.88
4081.606	-84.88
4084.052	-88.88
4086.497	-91.88
4088.939	-87.88
4091.38	-80.88
4093.819	-88.88
4096.257	-94.88
4098.693	-93.88
4101.127	-95.88
4103.559	-97.88
4105.989	-57.88
4108.418	-51.88
4110.845	-53.88
4113.27	-45.88
4115.694	-36.88
4118.115	-33.88
4120.535	-89.88
4122.954	-91.88
4125.37	-91.88
4127.785	-88.88
4130.198	-89.88
4132.609	-87.88
4135.019	-91.88
4137.427	-92.88
4139.833	-94.88
4142.237	-95.88
