Data from B.sub_water_10000CFUB3_RamanShift_1.txt Node
Date: Wed Mar 08 16:02:06 IST 2017
User: aro
Spectrometer: QEPB0276
Trigger mode: 0
Integration Time (sec): 5.000000E0
Scans to average: 1
Electric dark correction enabled: true
Nonlinearity correction enabled: false
Boxcar width: 0
XAxis mode: Raman Shifts
Number of Pixels in Spectrum: 1044
>>>>>Begin Spectral Data<<<<<
160.701	-32.88
166.742	-4.88
172.777	80.12
178.805	359.12
184.826	981.12
190.841	2054.12
196.849	3217.12
202.85	3969.12
208.845	4104.12
214.833	3955.12
220.815	3794.12
226.789	3686.12
232.758	3566.12
238.719	3462.12
244.674	3321.12
250.623	3161.12
256.565	2986.12
262.5	2867.12
268.429	2736.12
274.351	2585.12
280.267	2471.12
286.176	2387.12
292.079	2311.12
297.975	2241.12
303.865	2143.12
309.748	2089.12
315.625	2051.12
321.495	1991.12
327.359	1976.12
333.217	1960.12
339.068	1928.12
344.912	1908.12
350.751	1912.12
356.583	1927.12
362.408	1905.12
368.227	1895.12
374.04	1903.12
379.847	1930.12
385.647	1937.12
391.44	1950.12
397.228	1960.12
403.009	1950.12
408.784	1988.12
414.553	1973.12
420.315	1969.12
426.071	1976.12
431.821	1993.12
437.565	1975.12
443.302	1957.12
449.033	1938.12
454.758	1956.12
460.477	1933.12
466.189	1924.12
471.896	1906.12
477.596	1888.12
483.29	1889.12
488.978	1875.12
494.66	1856.12
500.335	1844.12
506.005	1808.12
511.668	1748.12
517.325	1726.12
522.977	1686.12
528.622	1673.12
534.261	1635.12
539.894	1619.12
545.521	1598.12
551.141	1579.12
556.756	1576.12
562.365	1561.12
567.968	1537.12
573.565	1534.12
579.155	1529.12
584.74	1520.12
590.319	1508.12
595.892	1479.12
601.459	1497.12
607.02	1478.12
612.575	1455.12
618.124	1445.12
623.667	1415.12
629.204	1400.12
634.735	1396.12
640.261	1372.12
645.781	1349.12
651.294	1358.12
656.802	1348.12
662.304	1326.12
667.8	1323.12
673.29	1321.12
678.775	1309.12
684.254	1304.12
689.726	1309.12
695.193	1282.12
700.655	1285.12
706.11	1286.12
711.56	1256.12
717.004	1259.12
722.442	1238.12
727.874	1219.12
733.301	1208.12
738.722	1212.12
744.137	1197.12
749.547	1199.12
754.951	1205.12
760.349	1190.12
765.741	1180.12
771.128	1175.12
776.509	1166.12
781.885	1174.12
787.254	1179.12
792.618	1151.12
797.977	1159.12
803.33	1150.12
808.677	1125.12
814.019	1112.12
819.355	1092.12
824.686	1087.12
830.011	1075.12
835.33	1058.12
840.644	1056.12
845.952	1047.12
851.255	1044.12
856.552	1027.12
861.844	1023.12
867.13	1024.12
872.41	1019.12
877.686	997.12
882.955	995.12
888.219	957.12
893.478	938.12
898.731	922.12
903.979	912.12
909.221	893.12
914.458	882.12
919.69	873.12
924.916	869.12
930.136	857.12
935.351	855.12
940.561	866.12
945.766	861.12
950.965	842.12
956.158	837.12
961.347	829.12
966.529	801.12
971.707	794.12
976.879	777.12
982.046	777.12
987.208	768.12
992.364	764.12
997.515	766.12
1002.66	772.12
1007.801	775.12
1012.936	786.12
1018.066	798.12
1023.19	798.12
1028.309	790.12
1033.423	791.12
1038.532	796.12
1043.636	783.12
1048.734	779.12
1053.827	762.12
1058.915	752.12
1063.998	753.12
1069.075	747.12
1074.147	756.12
1079.214	771.12
1084.276	763.12
1089.333	755.12
1094.385	766.12
1099.431	767.12
1104.472	761.12
1109.509	752.12
1114.54	746.12
1119.565	747.12
1124.586	731.12
1129.602	728.12
1134.613	721.12
1139.618	716.12
1144.619	715.12
1149.614	712.12
1154.604	722.12
1159.589	723.12
1164.57	727.12
1169.545	727.12
1174.515	726.12
1179.48	721.12
1184.44	721.12
1189.395	709.12
1194.345	705.12
1199.29	705.12
1204.23	713.12
1209.165	716.12
1214.095	724.12
1219.021	719.12
1223.941	732.12
1228.856	742.12
1233.766	735.12
1238.672	731.12
1243.572	733.12
1248.467	734.12
1253.358	718.12
1258.244	714.12
1263.124	706.12
1268	691.12
1272.871	681.12
1277.737	670.12
1282.599	658.12
1287.455	665.12
1292.306	675.12
1297.153	684.12
1301.995	697.12
1306.832	687.12
1311.664	698.12
1316.491	693.12
1321.314	692.12
1326.132	669.12
1330.945	660.12
1335.753	646.12
1340.556	623.12
1345.354	620.12
1350.148	613.12
1354.937	609.12
1359.722	605.12
1364.501	614.12
1369.276	624.12
1374.046	641.12
1378.811	643.12
1383.572	657.12
1388.327	645.12
1393.079	638.12
1397.825	622.12
1402.567	606.12
1407.304	607.12
1412.036	587.12
1416.764	591.12
1421.487	592.12
1426.205	591.12
1430.919	595.12
1435.628	593.12
1440.333	603.12
1445.032	599.12
1449.727	615.12
1454.418	606.12
1459.104	605.12
1463.785	595.12
1468.462	595.12
1473.134	589.12
1477.802	579.12
1482.465	581.12
1487.123	578.12
1491.777	580.12
1496.426	594.12
1501.071	618.12
1505.711	613.12
1510.347	630.12
1514.978	638.12
1519.604	646.12
1524.226	656.12
1528.844	669.12
1533.457	663.12
1538.065	665.12
1542.669	656.12
1547.269	675.12
1551.864	675.12
1556.454	672.12
1561.041	682.12
1565.622	694.12
1570.199	700.12
1574.772	709.12
1579.34	716.12
1583.904	740.12
1588.464	767.12
1593.019	772.12
1597.569	780.12
1602.115	797.12
1606.657	817.12
1611.195	824.12
1615.728	829.12
1620.256	849.12
1624.78	866.12
1629.3	887.12
1633.816	898.12
1638.327	913.12
1642.834	924.12
1647.336	934.12
1651.834	916.12
1656.328	931.12
1660.817	926.12
1665.302	906.12
1669.783	878.12
1674.259	841.12
1678.732	818.12
1683.199	778.12
1687.663	733.12
1692.122	715.12
1696.577	665.12
1701.028	650.12
1705.474	643.12
1709.917	617.12
1714.355	597.12
1718.788	566.12
1723.218	551.12
1727.643	524.12
1732.064	509.12
1736.481	487.12
1740.893	462.12
1745.301	448.12
1749.705	432.12
1754.105	420.12
1758.501	398.12
1762.893	398.12
1767.28	372.12
1771.663	374.12
1776.042	361.12
1780.417	358.12
1784.787	356.12
1789.154	359.12
1793.516	353.12
1797.874	370.12
1802.228	358.12
1806.578	366.12
1810.924	354.12
1815.266	361.12
1819.603	348.12
1823.937	337.12
1828.266	334.12
1832.591	323.12
1836.913	317.12
1841.23	321.12
1845.543	308.12
1849.852	306.12
1854.156	309.12
1858.457	309.12
1862.754	309.12
1867.047	308.12
1871.335	312.12
1875.62	316.12
1879.9	309.12
1884.177	319.12
1888.449	312.12
1892.718	306.12
1896.982	307.12
1901.243	303.12
1905.499	308.12
1909.752	300.12
1914	303.12
1918.245	302.12
1922.485	299.12
1926.722	316.12
1930.954	322.12
1935.183	318.12
1939.408	327.12
1943.628	318.12
1947.845	316.12
1952.058	328.12
1956.267	320.12
1960.472	322.12
1964.673	313.12
1968.87	310.12
1973.063	311.12
1977.252	319.12
1981.438	306.12
1985.619	304.12
1989.797	300.12
1993.971	307.12
1998.14	303.12
2002.306	305.12
2006.469	309.12
2010.627	316.12
2014.781	310.12
2018.932	324.12
2023.078	309.12
2027.221	313.12
2031.36	304.12
2035.495	300.12
2039.627	295.12
2043.754	297.12
2047.878	305.12
2051.998	301.12
2056.114	298.12
2060.226	302.12
2064.334	309.12
2068.439	312.12
2072.54	305.12
2076.637	311.12
2080.73	318.12
2084.82	318.12
2088.906	319.12
2092.988	331.12
2097.066	323.12
2101.14	325.12
2105.211	329.12
2109.278	313.12
2113.342	309.12
2117.401	308.12
2121.457	313.12
2125.509	311.12
2129.558	314.12
2133.602	305.12
2137.643	305.12
2141.681	306.12
2145.714	299.12
2149.744	294.12
2153.77	293.12
2157.793	290.12
2161.812	290.12
2165.827	283.12
2169.838	280.12
2173.846	267.12
2177.851	270.12
2181.851	261.12
2185.848	255.12
2189.841	257.12
2193.831	252.12
2197.817	241.12
2201.799	241.12
2205.778	238.12
2209.753	237.12
2213.725	233.12
2217.693	239.12
2221.657	230.12
2225.618	240.12
2229.575	226.12
2233.529	231.12
2237.479	226.12
2241.425	218.12
2245.368	215.12
2249.307	218.12
2253.243	214.12
2257.175	204.12
2261.104	194.12
2265.029	193.12
2268.95	185.12
2272.868	179.12
2276.783	184.12
2280.694	181.12
2284.601	181.12
2288.505	169.12
2292.405	173.12
2296.302	168.12
2300.195	178.12
2304.085	169.12
2307.971	154.12
2311.854	157.12
2315.734	152.12
2319.609	149.12
2323.482	138.12
2327.351	143.12
2331.216	145.12
2335.078	148.12
2338.937	138.12
2342.792	133.12
2346.643	124.12
2350.492	127.12
2354.336	127.12
2358.178	126.12
2362.015	121.12
2365.85	124.12
2369.681	127.12
2373.508	125.12
2377.333	124.12
2381.153	127.12
2384.971	121.12
2388.785	121.12
2392.595	118.12
2396.402	114.12
2400.206	112.12
2404.007	114.12
2407.804	113.12
2411.597	110.12
2415.388	104.12
2419.174	113.12
2422.958	107.12
2426.738	108.12
2430.515	106.12
2434.289	104.12
2438.059	101.12
2441.825	103.12
2445.589	100.12
2449.349	97.12
2453.106	101.12
2456.859	99.12
2460.61	93.12
2464.356	91.12
2468.1	93.12
2471.84	92.12
2475.577	85.12
2479.311	86.12
2483.041	84.12
2486.768	86.12
2490.492	80.12
2494.213	96.12
2497.93	90.12
2501.644	93.12
2505.355	82.12
2509.062	87.12
2512.766	88.12
2516.467	89.12
2520.165	88.12
2523.859	86.12
2527.551	84.12
2531.239	85.12
2534.923	76.12
2538.605	83.12
2542.283	85.12
2545.958	74.12
2549.63	79.12
2553.299	77.12
2556.964	78.12
2560.626	77.12
2564.285	80.12
2567.941	67.12
2571.594	72.12
2575.243	70.12
2578.89	63.12
2582.533	74.12
2586.173	71.12
2589.809	65.12
2593.443	66.12
2597.073	73.12
2600.701	63.12
2604.325	60.12
2607.946	63.12
2611.564	69.12
2615.178	58.12
2618.79	63.12
2622.398	64.12
2626.004	55.12
2629.606	61.12
2633.205	59.12
2636.801	68.12
2640.394	59.12
2643.983	59.12
2647.57	54.12
2651.153	53.12
2654.734	56.12
2658.311	53.12
2661.885	45.12
2665.456	53.12
2669.025	46.12
2672.589	52.12
2676.151	45.12
2679.71	47.12
2683.266	49.12
2686.819	42.12
2690.368	42.12
2693.915	42.12
2697.458	43.12
2700.999	40.12
2704.536	43.12
2708.071	42.12
2711.602	42.12
2715.13	50.12
2718.656	41.12
2722.178	39.12
2725.697	36.12
2729.214	40.12
2732.727	36.12
2736.237	38.12
2739.744	46.12
2743.249	44.12
2746.75	48.12
2750.248	53.12
2753.743	50.12
2757.236	48.12
2760.725	49.12
2764.211	46.12
2767.695	54.12
2771.175	50.12
2774.652	50.12
2778.127	59.12
2781.598	54.12
2785.067	56.12
2788.532	56.12
2791.995	55.12
2795.455	56.12
2798.911	60.12
2802.365	62.12
2805.816	61.12
2809.264	56.12
2812.709	66.12
2816.151	66.12
2819.59	67.12
2823.026	68.12
2826.46	67.12
2829.89	73.12
2833.318	69.12
2836.742	68.12
2840.164	69.12
2843.583	73.12
2846.999	72.12
2850.412	80.12
2853.822	79.12
2857.229	83.12
2860.634	90.12
2864.035	95.12
2867.434	96.12
2870.83	99.12
2874.223	103.12
2877.613	98.12
2881	108.12
2884.385	109.12
2887.766	105.12
2891.145	111.12
2894.521	112.12
2897.894	121.12
2901.264	119.12
2904.631	123.12
2907.996	126.12
2911.358	124.12
2914.717	132.12
2918.073	131.12
2921.426	139.12
2924.777	147.12
2928.124	148.12
2931.469	161.12
2934.811	163.12
2938.15	161.12
2941.487	175.12
2944.821	172.12
2948.152	174.12
2951.48	184.12
2954.805	185.12
2958.128	188.12
2961.447	199.12
2964.765	205.12
2968.079	207.12
2971.39	215.12
2974.699	226.12
2978.005	235.12
2981.308	240.12
2984.609	249.12
2987.907	260.12
2991.202	273.12
2994.494	275.12
2997.784	293.12
3001.07	296.12
3004.355	309.12
3007.636	326.12
3010.915	330.12
3014.191	350.12
3017.464	354.12
3020.734	366.12
3024.002	369.12
3027.267	378.12
3030.53	379.12
3033.789	387.12
3037.046	400.12
3040.301	419.12
3043.552	427.12
3046.801	445.12
3050.048	455.12
3053.291	469.12
3056.532	482.12
3059.771	505.12
3063.006	520.12
3066.239	544.12
3069.469	556.12
3072.697	569.12
3075.922	605.12
3079.144	622.12
3082.364	631.12
3085.581	645.12
3088.795	657.12
3092.007	674.12
3095.216	700.12
3098.423	691.12
3101.627	733.12
3104.828	761.12
3108.026	764.12
3111.222	796.12
3114.416	805.12
3117.607	833.12
3120.795	860.12
3123.98	870.12
3127.163	906.12
3130.344	920.12
3133.521	937.12
3136.696	956.12
3139.869	994.12
3143.039	995.12
3146.206	1016.12
3149.371	1047.12
3152.533	1041.12
3155.693	1056.12
3158.85	1067.12
3162.005	1066.12
3165.157	1068.12
3168.306	1070.12
3171.453	1082.12
3174.597	1103.12
3177.739	1092.12
3180.878	1092.12
3184.014	1100.12
3187.149	1108.12
3190.28	1102.12
3193.409	1127.12
3196.536	1125.12
3199.659	1122.12
3202.781	1132.12
3205.9	1139.12
3209.016	1144.12
3212.13	1134.12
3215.241	1122.12
3218.35	1120.12
3221.456	1110.12
3224.56	1100.12
3227.661	1089.12
3230.76	1084.12
3233.856	1069.12
3236.95	1068.12
3240.041	1055.12
3243.13	1049.12
3246.216	1059.12
3249.3	1035.12
3252.382	1030.12
3255.46	1043.12
3258.537	1018.12
3261.611	1011.12
3264.682	1015.12
3267.751	1012.12
3270.818	1006.12
3273.882	1013.12
3276.943	1004.12
3280.002	1001.12
3283.059	970.12
3286.113	981.12
3289.165	951.12
3292.214	942.12
3295.261	922.12
3298.306	906.12
3301.348	895.12
3304.387	893.12
3307.425	881.12
3310.459	864.12
3313.492	848.12
3316.521	836.12
3319.549	824.12
3322.574	829.12
3325.597	806.12
3328.617	810.12
3331.635	798.12
3334.65	795.12
3337.663	801.12
3340.674	792.12
3343.682	793.12
3346.688	791.12
3349.691	777.12
3352.692	780.12
3355.691	777.12
3358.687	776.12
3361.681	758.12
3364.673	760.12
3367.662	744.12
3370.649	739.12
3373.633	729.12
3376.615	717.12
3379.595	704.12
3382.572	686.12
3385.547	691.12
3388.52	676.12
3391.49	670.12
3394.458	662.12
3397.424	665.12
3400.387	656.12
3403.348	642.12
3406.307	637.12
3409.263	619.12
3412.217	615.12
3415.168	618.12
3418.118	606.12
3421.065	606.12
3424.009	583.12
3426.951	592.12
3429.891	570.12
3432.829	575.12
3435.764	559.12
3438.697	539.12
3441.628	527.12
3444.557	506.12
3447.483	502.12
3450.407	484.12
3453.328	471.12
3456.247	459.12
3459.164	451.12
3462.079	432.12
3464.991	417.12
3467.902	416.12
3470.809	404.12
3473.715	377.12
3476.618	377.12
3479.519	359.12
3482.418	348.12
3485.315	344.12
3488.209	330.12
3491.101	325.12
3493.99	314.12
3496.878	304.12
3499.763	291.12
3502.646	279.12
3505.527	274.12
3508.405	260.12
3511.281	249.12
3514.155	241.12
3517.027	227.12
3519.897	219.12
3522.764	203.12
3525.629	200.12
3528.492	180.12
3531.352	183.12
3534.211	166.12
3537.067	159.12
3539.921	145.12
3542.773	133.12
3545.622	133.12
3548.469	120.12
3551.315	117.12
3554.157	101.12
3556.998	96.12
3559.837	92.12
3562.673	86.12
3565.507	77.12
3568.339	76.12
3571.169	68.12
3573.996	62.12
3576.822	64.12
3579.645	58.12
3582.466	49.12
3585.285	40.12
3588.101	32.12
3590.916	27.12
3593.728	32.12
3596.538	22.12
3599.346	22.12
3602.152	14.12
3604.956	9.12
3607.757	1.12
3610.556	-0.88
3613.354	-6.88
3616.149	-9.88
3618.942	-6.88
3621.732	-13.88
3624.521	-16.88
3627.307	-16.88
3630.092	-18.88
3632.874	-23.88
3635.654	-22.88
3638.432	-28.88
3641.208	-29.88
3643.982	-35.88
3646.753	-37.88
3649.523	-40.88
3652.29	-42.88
3655.055	-43.88
3657.818	-47.88
3660.579	-45.88
3663.338	-48.88
3666.095	-52.88
3668.849	-52.88
3671.602	-55.88
3674.352	-59.88
3677.101	-59.88
3679.847	-63.88
3682.591	-65.88
3685.333	-63.88
3688.073	-66.88
3690.811	-68.88
3693.547	-70.88
3696.281	-72.88
3699.013	-75.88
3701.742	-72.88
3704.47	-78.88
3707.195	-75.88
3709.919	-73.88
3712.64	-74.88
3715.359	-79.88
3718.076	-75.88
3720.792	-78.88
3723.505	-79.88
3726.216	-80.88
3728.925	-82.88
3731.632	-80.88
3734.336	-84.88
3737.039	-79.88
3739.74	-83.88
3742.439	-81.88
3745.136	-87.88
3747.83	-88.88
3750.523	-88.88
3753.213	-87.88
3755.902	-89.88
3758.589	-87.88
3761.273	-85.88
3763.956	-86.88
3766.636	-88.88
3769.315	-90.88
3771.991	-82.88
3774.665	-91.88
3777.338	-92.88
3780.008	-90.88
3782.677	-92.88
3785.343	-92.88
3788.007	-94.88
3790.67	-89.88
3793.33	-89.88
3795.989	-92.88
3798.645	-91.88
3801.299	-92.88
3803.952	-94.88
3806.602	-91.88
3809.251	-95.88
3811.897	-96.88
3814.542	-92.88
3817.184	-89.88
3819.825	-91.88
3822.463	-90.88
3825.1	-92.88
3827.735	-93.88
3830.367	-95.88
3832.998	-98.88
3835.627	-97.88
3838.253	-95.88
3840.878	-97.88
3843.501	-92.88
3846.122	-92.88
3848.741	-93.88
3851.358	-95.88
3853.973	-92.88
3856.586	-93.88
3859.197	-97.88
3861.806	-96.88
3864.414	-94.88
3867.019	-96.88
3869.622	-92.88
3872.224	-95.88
3874.823	-92.88
3877.421	-90.88
3880.016	-94.88
3882.61	-85.88
3885.202	-87.88
3887.792	-94.88
3890.38	-95.88
3892.966	-94.88
3895.55	-94.88
3898.132	-95.88
3900.713	-94.88
3903.291	-96.88
3905.868	-99.88
3908.442	-96.88
3911.015	-96.88
3913.586	-97.88
3916.155	-94.88
3918.722	-100.88
3921.287	-96.88
3923.85	-96.88
3926.411	-98.88
3928.971	-101.88
3931.528	-99.88
3934.084	-99.88
3936.638	-101.88
3939.19	-99.88
3941.74	-92.88
3944.288	-100.88
3946.834	-100.88
3949.378	-100.88
3951.921	-98.88
3954.462	-94.88
3957	-97.88
3959.537	-100.88
3962.072	-98.88
3964.606	-103.88
3967.137	-103.88
3969.667	-98.88
3972.194	-97.88
3974.72	-97.88
3977.244	-99.88
3979.766	-96.88
3982.286	-94.88
3984.805	-100.88
3987.321	-94.88
3989.836	-97.88
3992.349	-95.88
3994.86	-99.88
3997.369	-99.88
3999.877	-100.88
4002.382	-100.88
4004.886	-96.88
4007.388	-95.88
4009.888	-98.88
4012.386	-100.88
4014.883	-95.88
4017.377	-100.88
4019.87	-96.88
4022.361	-96.88
4024.85	-95.88
4027.338	-95.88
4029.823	-96.88
4032.307	-98.88
4034.789	-93.88
4037.269	-95.88
4039.747	-96.88
4042.224	-100.88
4044.699	-99.88
4047.172	-105.88
4049.643	-101.88
4052.112	-101.88
4054.58	-98.88
4057.046	-97.88
4059.51	-97.88
4061.972	-98.88
4064.432	-92.88
4066.891	-96.88
4069.348	-97.88
4071.803	-101.88
4074.256	-101.88
4076.708	-101.88
4079.158	-97.88
4081.606	-97.88
4084.052	-103.88
4086.497	-96.88
4088.939	-97.88
4091.38	-98.88
4093.819	-97.88
4096.257	-102.88
4098.693	-105.88
4101.127	-102.88
4103.559	-101.88
4105.989	-68.88
4108.418	-62.88
4110.845	-56.88
4113.27	-51.88
4115.694	-50.88
4118.115	-44.88
4120.535	-102.88
4122.954	-101.88
4125.37	-99.88
4127.785	-100.88
4130.198	-94.88
4132.609	-96.88
4135.019	-100.88
4137.427	-99.88
4139.833	-100.88
4142.237	-99.88
