Data from 10000CFU3_A_ramanshift_RamanShift_14-16-35-474.txt Node
Date: Sun Dec 25 14:16:35 IST 2016
User: aro
Spectrometer: QEPB0276
Trigger mode: 0
Integration Time (sec): 5.000000E0
Scans to average: 1
Electric dark correction enabled: true
Nonlinearity correction enabled: false
Boxcar width: 0
XAxis mode: Raman Shifts
Number of Pixels in Spectrum: 1044
>>>>>Begin Spectral Data<<<<<
160.701	9.12
166.742	21.12
172.777	61.12
178.805	203.12
184.826	599.12
190.841	1427.12
196.849	2576.12
202.85	3694.12
208.845	4218.12
214.833	4240.12
220.815	4091.12
226.789	3950.12
232.758	3835.12
238.719	3719.12
244.674	3610.12
250.623	3455.12
256.565	3292.12
262.5	3150.12
268.429	2996.12
274.351	2872.12
280.267	2770.12
286.176	2664.12
292.079	2574.12
297.975	2485.12
303.865	2390.12
309.748	2322.12
315.625	2257.12
321.495	2199.12
327.359	2145.12
333.217	2140.12
339.068	2112.12
344.912	2091.12
350.751	2085.12
356.583	2058.12
362.408	2063.12
368.227	2055.12
374.04	2069.12
379.847	2087.12
385.647	2094.12
391.44	2104.12
397.228	2076.12
403.009	2101.12
408.784	2138.12
414.553	2139.12
420.315	2151.12
426.071	2131.12
431.821	2145.12
437.565	2161.12
443.302	2147.12
449.033	2143.12
454.758	2149.12
460.477	2123.12
466.189	2124.12
471.896	2120.12
477.596	2090.12
483.29	2086.12
488.978	2075.12
494.66	2090.12
500.335	2072.12
506.005	2045.12
511.668	2017.12
517.325	1957.12
522.977	1942.12
528.622	1922.12
534.261	1901.12
539.894	1881.12
545.521	1862.12
551.141	1860.12
556.756	1832.12
562.365	1831.12
567.968	1825.12
573.565	1817.12
579.155	1786.12
584.74	1777.12
590.319	1775.12
595.892	1768.12
601.459	1766.12
607.02	1748.12
612.575	1737.12
618.124	1709.12
623.667	1696.12
629.204	1701.12
634.735	1677.12
640.261	1659.12
645.781	1666.12
651.294	1677.12
656.802	1646.12
662.304	1624.12
667.8	1633.12
673.29	1640.12
678.775	1616.12
684.254	1615.12
689.726	1607.12
695.193	1602.12
700.655	1602.12
706.11	1574.12
711.56	1571.12
717.004	1565.12
722.442	1551.12
727.874	1525.12
733.301	1550.12
738.722	1521.12
744.137	1524.12
749.547	1512.12
754.951	1499.12
760.349	1507.12
765.741	1492.12
771.128	1493.12
776.509	1500.12
781.885	1502.12
787.254	1524.12
792.618	1504.12
797.977	1501.12
803.33	1478.12
808.677	1474.12
814.019	1470.12
819.355	1440.12
824.686	1424.12
830.011	1424.12
835.33	1408.12
840.644	1419.12
845.952	1407.12
851.255	1409.12
856.552	1406.12
861.844	1404.12
867.13	1391.12
872.41	1389.12
877.686	1353.12
882.955	1353.12
888.219	1334.12
893.478	1323.12
898.731	1308.12
903.979	1291.12
909.221	1276.12
914.458	1274.12
919.69	1246.12
924.916	1232.12
930.136	1235.12
935.351	1245.12
940.561	1235.12
945.766	1238.12
950.965	1244.12
956.158	1230.12
961.347	1216.12
966.529	1196.12
971.707	1178.12
976.879	1191.12
982.046	1149.12
987.208	1155.12
992.364	1143.12
997.515	1151.12
1002.66	1148.12
1007.801	1158.12
1012.936	1173.12
1018.066	1164.12
1023.19	1191.12
1028.309	1179.12
1033.423	1194.12
1038.532	1183.12
1043.636	1184.12
1048.734	1177.12
1053.827	1173.12
1058.915	1154.12
1063.998	1144.12
1069.075	1130.12
1074.147	1150.12
1079.214	1138.12
1084.276	1166.12
1089.333	1152.12
1094.385	1161.12
1099.431	1171.12
1104.472	1169.12
1109.509	1166.12
1114.54	1158.12
1119.565	1143.12
1124.586	1150.12
1129.602	1130.12
1134.613	1127.12
1139.618	1114.12
1144.619	1109.12
1149.614	1114.12
1154.604	1120.12
1159.589	1135.12
1164.57	1143.12
1169.545	1139.12
1174.515	1142.12
1179.48	1141.12
1184.44	1160.12
1189.395	1132.12
1194.345	1132.12
1199.29	1131.12
1204.23	1120.12
1209.165	1112.12
1214.095	1127.12
1219.021	1131.12
1223.941	1139.12
1228.856	1148.12
1233.766	1141.12
1238.672	1154.12
1243.572	1144.12
1248.467	1142.12
1253.358	1154.12
1258.244	1134.12
1263.124	1113.12
1268	1094.12
1272.871	1070.12
1277.737	1094.12
1282.599	1082.12
1287.455	1082.12
1292.306	1076.12
1297.153	1075.12
1301.995	1095.12
1306.832	1087.12
1311.664	1088.12
1316.491	1094.12
1321.314	1101.12
1326.132	1082.12
1330.945	1077.12
1335.753	1049.12
1340.556	1038.12
1345.354	1006.12
1350.148	1000.12
1354.937	990.12
1359.722	994.12
1364.501	1009.12
1369.276	1017.12
1374.046	1026.12
1378.811	1032.12
1383.572	1057.12
1388.327	1047.12
1393.079	1033.12
1397.825	1018.12
1402.567	1004.12
1407.304	981.12
1412.036	986.12
1416.764	969.12
1421.487	971.12
1426.205	954.12
1430.919	983.12
1435.628	990.12
1440.333	985.12
1445.032	995.12
1449.727	1004.12
1454.418	1006.12
1459.104	1022.12
1463.785	1003.12
1468.462	981.12
1473.134	986.12
1477.802	967.12
1482.465	969.12
1487.123	974.12
1491.777	966.12
1496.426	967.12
1501.071	982.12
1505.711	979.12
1510.347	1001.12
1514.978	1005.12
1519.604	1016.12
1524.226	1043.12
1528.844	1040.12
1533.457	1062.12
1538.065	1055.12
1542.669	1059.12
1547.269	1040.12
1551.864	1072.12
1556.454	1056.12
1561.041	1062.12
1565.622	1069.12
1570.199	1078.12
1574.772	1076.12
1579.34	1114.12
1583.904	1117.12
1588.464	1137.12
1593.019	1137.12
1597.569	1161.12
1602.115	1152.12
1606.657	1183.12
1611.195	1187.12
1615.728	1172.12
1620.256	1202.12
1624.78	1216.12
1629.3	1240.12
1633.816	1248.12
1638.327	1254.12
1642.834	1284.12
1647.336	1292.12
1651.834	1301.12
1656.328	1306.12
1660.817	1298.12
1665.302	1300.12
1669.783	1270.12
1674.259	1226.12
1678.732	1204.12
1683.199	1166.12
1687.663	1125.12
1692.122	1061.12
1696.577	1038.12
1701.028	1023.12
1705.474	1006.12
1709.917	992.12
1714.355	974.12
1718.788	956.12
1723.218	921.12
1727.643	902.12
1732.064	882.12
1736.481	857.12
1740.893	823.12
1745.301	818.12
1749.705	790.12
1754.105	763.12
1758.501	746.12
1762.893	729.12
1767.28	724.12
1771.663	711.12
1776.042	699.12
1780.417	699.12
1784.787	698.12
1789.154	713.12
1793.516	706.12
1797.874	720.12
1802.228	718.12
1806.578	722.12
1810.924	718.12
1815.266	717.12
1819.603	705.12
1823.937	684.12
1828.266	684.12
1832.591	662.12
1836.913	669.12
1841.23	660.12
1845.543	653.12
1849.852	646.12
1854.156	651.12
1858.457	641.12
1862.754	643.12
1867.047	650.12
1871.335	643.12
1875.62	642.12
1879.9	646.12
1884.177	648.12
1888.449	659.12
1892.718	649.12
1896.982	639.12
1901.243	644.12
1905.499	632.12
1909.752	636.12
1914	642.12
1918.245	643.12
1922.485	638.12
1926.722	635.12
1930.954	648.12
1935.183	641.12
1939.408	662.12
1943.628	664.12
1947.845	655.12
1952.058	664.12
1956.267	661.12
1960.472	658.12
1964.673	655.12
1968.87	659.12
1973.063	644.12
1977.252	637.12
1981.438	623.12
1985.619	632.12
1989.797	628.12
1993.971	628.12
1998.14	631.12
2002.306	629.12
2006.469	641.12
2010.627	636.12
2014.781	636.12
2018.932	628.12
2023.078	627.12
2027.221	622.12
2031.36	628.12
2035.495	635.12
2039.627	613.12
2043.754	627.12
2047.878	612.12
2051.998	601.12
2056.114	605.12
2060.226	611.12
2064.334	615.12
2068.439	625.12
2072.54	619.12
2076.637	617.12
2080.73	639.12
2084.82	626.12
2088.906	642.12
2092.988	628.12
2097.066	630.12
2101.14	630.12
2105.211	626.12
2109.278	627.12
2113.342	625.12
2117.401	621.12
2121.457	626.12
2125.509	611.12
2129.558	615.12
2133.602	613.12
2137.643	615.12
2141.681	612.12
2145.714	603.12
2149.744	611.12
2153.77	601.12
2157.793	600.12
2161.812	589.12
2165.827	582.12
2169.838	569.12
2173.846	565.12
2177.851	562.12
2181.851	562.12
2185.848	554.12
2189.841	553.12
2193.831	531.12
2197.817	522.12
2201.799	542.12
2205.778	529.12
2209.753	526.12
2213.725	527.12
2217.693	519.12
2221.657	524.12
2225.618	518.12
2229.575	518.12
2233.529	514.12
2237.479	520.12
2241.425	503.12
2245.368	506.12
2249.307	501.12
2253.243	484.12
2257.175	483.12
2261.104	482.12
2265.029	477.12
2268.95	465.12
2272.868	460.12
2276.783	458.12
2280.694	446.12
2284.601	447.12
2288.505	444.12
2292.405	435.12
2296.302	437.12
2300.195	436.12
2304.085	427.12
2307.971	417.12
2311.854	417.12
2315.734	412.12
2319.609	406.12
2323.482	396.12
2327.351	400.12
2331.216	391.12
2335.078	382.12
2338.937	378.12
2342.792	381.12
2346.643	374.12
2350.492	373.12
2354.336	379.12
2358.178	380.12
2362.015	375.12
2365.85	375.12
2369.681	376.12
2373.508	367.12
2377.333	380.12
2381.153	378.12
2384.971	378.12
2388.785	370.12
2392.595	379.12
2396.402	372.12
2400.206	363.12
2404.007	370.12
2407.804	364.12
2411.597	352.12
2415.388	352.12
2419.174	352.12
2422.958	356.12
2426.738	354.12
2430.515	353.12
2434.289	359.12
2438.059	352.12
2441.825	342.12
2445.589	343.12
2449.349	339.12
2453.106	336.12
2456.859	339.12
2460.61	343.12
2464.356	334.12
2468.1	331.12
2471.84	322.12
2475.577	320.12
2479.311	329.12
2483.041	327.12
2486.768	332.12
2490.492	325.12
2494.213	327.12
2497.93	324.12
2501.644	326.12
2505.355	321.12
2509.062	319.12
2512.766	322.12
2516.467	315.12
2520.165	323.12
2523.859	315.12
2527.551	300.12
2531.239	309.12
2534.923	305.12
2538.605	300.12
2542.283	303.12
2545.958	290.12
2549.63	301.12
2553.299	286.12
2556.964	300.12
2560.626	303.12
2564.285	290.12
2567.941	293.12
2571.594	287.12
2575.243	291.12
2578.89	279.12
2582.533	287.12
2586.173	283.12
2589.809	285.12
2593.443	280.12
2597.073	288.12
2600.701	279.12
2604.325	274.12
2607.946	271.12
2611.564	278.12
2615.178	277.12
2618.79	279.12
2622.398	266.12
2626.004	271.12
2629.606	268.12
2633.205	261.12
2636.801	267.12
2640.394	262.12
2643.983	259.12
2647.57	249.12
2651.153	250.12
2654.734	253.12
2658.311	245.12
2661.885	250.12
2665.456	246.12
2669.025	250.12
2672.589	236.12
2676.151	242.12
2679.71	240.12
2683.266	241.12
2686.819	233.12
2690.368	234.12
2693.915	232.12
2697.458	228.12
2700.999	222.12
2704.536	219.12
2708.071	212.12
2711.602	216.12
2715.13	215.12
2718.656	211.12
2722.178	214.12
2725.697	209.12
2729.214	212.12
2732.727	210.12
2736.237	218.12
2739.744	216.12
2743.249	213.12
2746.75	212.12
2750.248	216.12
2753.743	220.12
2757.236	212.12
2760.725	224.12
2764.211	219.12
2767.695	216.12
2771.175	220.12
2774.652	225.12
2778.127	212.12
2781.598	217.12
2785.067	222.12
2788.532	210.12
2791.995	221.12
2795.455	220.12
2798.911	216.12
2802.365	214.12
2805.816	215.12
2809.264	215.12
2812.709	219.12
2816.151	216.12
2819.59	214.12
2823.026	214.12
2826.46	218.12
2829.89	217.12
2833.318	217.12
2836.742	220.12
2840.164	211.12
2843.583	221.12
2846.999	215.12
2850.412	221.12
2853.822	222.12
2857.229	229.12
2860.634	241.12
2864.035	228.12
2867.434	242.12
2870.83	246.12
2874.223	248.12
2877.613	251.12
2881	258.12
2884.385	250.12
2887.766	249.12
2891.145	250.12
2894.521	246.12
2897.894	255.12
2901.264	252.12
2904.631	252.12
2907.996	265.12
2911.358	250.12
2914.717	257.12
2918.073	263.12
2921.426	266.12
2924.777	268.12
2928.124	272.12
2931.469	280.12
2934.811	277.12
2938.15	286.12
2941.487	284.12
2944.821	294.12
2948.152	290.12
2951.48	305.12
2954.805	309.12
2958.128	314.12
2961.447	316.12
2964.765	315.12
2968.079	320.12
2971.39	325.12
2974.699	335.12
2978.005	346.12
2981.308	352.12
2984.609	364.12
2987.907	371.12
2991.202	372.12
2994.494	383.12
2997.784	399.12
3001.07	405.12
3004.355	418.12
3007.636	435.12
3010.915	449.12
3014.191	462.12
3017.464	476.12
3020.734	471.12
3024.002	482.12
3027.267	484.12
3030.53	478.12
3033.789	497.12
3037.046	505.12
3040.301	514.12
3043.552	522.12
3046.801	531.12
3050.048	550.12
3053.291	570.12
3056.532	583.12
3059.771	589.12
3063.006	605.12
3066.239	623.12
3069.469	651.12
3072.697	665.12
3075.922	677.12
3079.144	693.12
3082.364	710.12
3085.581	723.12
3088.795	750.12
3092.007	762.12
3095.216	772.12
3098.423	798.12
3101.627	799.12
3104.828	829.12
3108.026	851.12
3111.222	877.12
3114.416	888.12
3117.607	898.12
3120.795	914.12
3123.98	938.12
3127.163	971.12
3130.344	982.12
3133.521	1027.12
3136.696	1033.12
3139.869	1060.12
3143.039	1076.12
3146.206	1082.12
3149.371	1099.12
3152.533	1113.12
3155.693	1125.12
3158.85	1120.12
3162.005	1142.12
3165.157	1155.12
3168.306	1149.12
3171.453	1152.12
3174.597	1148.12
3177.739	1152.12
3180.878	1171.12
3184.014	1176.12
3187.149	1149.12
3190.28	1182.12
3193.409	1175.12
3196.536	1173.12
3199.659	1187.12
3202.781	1195.12
3205.9	1194.12
3209.016	1177.12
3212.13	1186.12
3215.241	1175.12
3218.35	1170.12
3221.456	1177.12
3224.56	1168.12
3227.661	1147.12
3230.76	1149.12
3233.856	1130.12
3236.95	1118.12
3240.041	1106.12
3243.13	1103.12
3246.216	1091.12
3249.3	1093.12
3252.382	1073.12
3255.46	1081.12
3258.537	1058.12
3261.611	1063.12
3264.682	1053.12
3267.751	1062.12
3270.818	1059.12
3273.882	1037.12
3276.943	1043.12
3280.002	1038.12
3283.059	1021.12
3286.113	1008.12
3289.165	973.12
3292.214	986.12
3295.261	974.12
3298.306	970.12
3301.348	949.12
3304.387	930.12
3307.425	920.12
3310.459	906.12
3313.492	882.12
3316.521	855.12
3319.549	868.12
3322.574	853.12
3325.597	835.12
3328.617	846.12
3331.635	841.12
3334.65	825.12
3337.663	825.12
3340.674	810.12
3343.682	805.12
3346.688	807.12
3349.691	802.12
3352.692	806.12
3355.691	802.12
3358.687	786.12
3361.681	781.12
3364.673	771.12
3367.662	767.12
3370.649	760.12
3373.633	746.12
3376.615	739.12
3379.595	714.12
3382.572	707.12
3385.547	719.12
3388.52	696.12
3391.49	695.12
3394.458	684.12
3397.424	676.12
3400.387	680.12
3403.348	653.12
3406.307	640.12
3409.263	650.12
3412.217	649.12
3415.168	634.12
3418.118	629.12
3421.065	625.12
3424.009	612.12
3426.951	602.12
3429.891	590.12
3432.829	578.12
3435.764	568.12
3438.697	568.12
3441.628	551.12
3444.557	537.12
3447.483	518.12
3450.407	523.12
3453.328	495.12
3456.247	485.12
3459.164	471.12
3462.079	460.12
3464.991	442.12
3467.902	437.12
3470.809	424.12
3473.715	408.12
3476.618	393.12
3479.519	383.12
3482.418	380.12
3485.315	362.12
3488.209	355.12
3491.101	339.12
3493.99	340.12
3496.878	332.12
3499.763	331.12
3502.646	314.12
3505.527	310.12
3508.405	295.12
3511.281	284.12
3514.155	261.12
3517.027	263.12
3519.897	244.12
3522.764	244.12
3525.629	233.12
3528.492	216.12
3531.352	213.12
3534.211	195.12
3537.067	180.12
3539.921	175.12
3542.773	170.12
3545.622	162.12
3548.469	158.12
3551.315	145.12
3554.157	138.12
3556.998	123.12
3559.837	119.12
3562.673	115.12
3565.507	109.12
3568.339	111.12
3571.169	106.12
3573.996	96.12
3576.822	87.12
3579.645	83.12
3582.466	82.12
3585.285	75.12
3588.101	70.12
3590.916	64.12
3593.728	62.12
3596.538	56.12
3599.346	51.12
3602.152	50.12
3604.956	43.12
3607.757	46.12
3610.556	35.12
3613.354	29.12
3616.149	27.12
3618.942	24.12
3621.732	24.12
3624.521	20.12
3627.307	20.12
3630.092	9.12
3632.874	9.12
3635.654	6.12
3638.432	1.12
3641.208	6.12
3643.982	2.12
3646.753	-0.88
3649.523	-1.88
3652.29	-4.88
3655.055	-11.88
3657.818	-15.88
3660.579	-11.88
3663.338	-21.88
3666.095	-14.88
3668.849	-16.88
3671.602	-19.88
3674.352	-23.88
3677.101	-27.88
3679.847	-30.88
3682.591	-31.88
3685.333	-31.88
3688.073	-34.88
3690.811	-32.88
3693.547	-34.88
3696.281	-35.88
3699.013	-37.88
3701.742	-35.88
3704.47	-42.88
3707.195	-45.88
3709.919	-47.88
3712.64	-46.88
3715.359	-44.88
3718.076	-45.88
3720.792	-47.88
3723.505	-46.88
3726.216	-52.88
3728.925	-49.88
3731.632	-52.88
3734.336	-49.88
3737.039	-51.88
3739.74	-52.88
3742.439	-49.88
3745.136	-52.88
3747.83	-50.88
3750.523	-54.88
3753.213	-57.88
3755.902	-56.88
3758.589	-57.88
3761.273	-55.88
3763.956	-53.88
3766.636	-49.88
3769.315	-53.88
3771.991	-59.88
3774.665	-60.88
3777.338	-59.88
3780.008	-59.88
3782.677	-59.88
3785.343	-57.88
3788.007	-60.88
3790.67	-56.88
3793.33	-61.88
3795.989	-61.88
3798.645	-60.88
3801.299	-61.88
3803.952	-60.88
3806.602	-59.88
3809.251	-57.88
3811.897	-61.88
3814.542	-60.88
3817.184	-59.88
3819.825	-61.88
3822.463	-60.88
3825.1	-68.88
3827.735	-64.88
3830.367	-67.88
3832.998	-63.88
3835.627	-63.88
3838.253	-61.88
3840.878	-63.88
3843.501	-64.88
3846.122	-66.88
3848.741	-70.88
3851.358	-70.88
3853.973	-63.88
3856.586	-60.88
3859.197	-63.88
3861.806	-63.88
3864.414	-67.88
3867.019	-68.88
3869.622	-63.88
3872.224	-65.88
3874.823	-67.88
3877.421	-62.88
3880.016	-63.88
3882.61	-60.88
3885.202	-57.88
3887.792	-61.88
3890.38	-61.88
3892.966	-64.88
3895.55	-66.88
3898.132	-69.88
3900.713	-70.88
3903.291	-68.88
3905.868	-64.88
3908.442	-68.88
3911.015	-72.88
3913.586	-69.88
3916.155	-69.88
3918.722	-69.88
3921.287	-67.88
3923.85	-70.88
3926.411	-65.88
3928.971	-65.88
3931.528	-69.88
3934.084	-71.88
3936.638	-74.88
3939.19	-69.88
3941.74	-73.88
3944.288	-70.88
3946.834	-68.88
3949.378	-69.88
3951.921	-67.88
3954.462	-69.88
3957	-72.88
3959.537	-69.88
3962.072	-68.88
3964.606	-68.88
3967.137	-68.88
3969.667	-66.88
3972.194	-68.88
3974.72	-70.88
3977.244	-67.88
3979.766	-70.88
3982.286	-65.88
3984.805	-71.88
3987.321	-71.88
3989.836	-69.88
3992.349	-69.88
3994.86	-64.88
3997.369	-63.88
3999.877	-69.88
4002.382	-69.88
4004.886	-70.88
4007.388	-72.88
4009.888	-66.88
4012.386	-62.88
4014.883	-66.88
4017.377	-69.88
4019.87	-67.88
4022.361	-68.88
4024.85	-69.88
4027.338	-69.88
4029.823	-63.88
4032.307	-64.88
4034.789	-66.88
4037.269	-67.88
4039.747	-72.88
4042.224	-71.88
4044.699	-68.88
4047.172	-72.88
4049.643	-64.88
4052.112	-69.88
4054.58	-69.88
4057.046	-65.88
4059.51	-68.88
4061.972	-64.88
4064.432	-68.88
4066.891	-68.88
4069.348	-68.88
4071.803	-70.88
4074.256	-73.88
4076.708	-71.88
4079.158	-67.88
4081.606	-62.88
4084.052	-71.88
4086.497	-68.88
4088.939	-73.88
4091.38	-72.88
4093.819	-68.88
4096.257	-70.88
4098.693	-69.88
4101.127	-72.88
4103.559	-69.88
4105.989	-21.88
4108.418	-21.88
4110.845	-10.88
4113.27	-9.88
4115.694	-8.88
4118.115	-4.88
4120.535	-70.88
4122.954	-67.88
4125.37	-68.88
4127.785	-69.88
4130.198	-69.88
4132.609	-71.88
4135.019	-75.88
4137.427	-71.88
4139.833	-73.88
4142.237	-72.88
