Data from 10CFU3_A_RamanShift_1.txt Node
Date: Thu Jan 26 10:49:48 IST 2017
User: aro
Spectrometer: QEPB0276
Trigger mode: 0
Integration Time (sec): 5.000000E0
Scans to average: 1
Electric dark correction enabled: true
Nonlinearity correction enabled: false
Boxcar width: 0
XAxis mode: Raman Shifts
Number of Pixels in Spectrum: 1044
>>>>>Begin Spectral Data<<<<<
160.701	-32.88
166.742	-6.88
172.777	106.12
178.805	414.12
184.826	1159.12
190.841	2361.12
196.849	3606.12
202.85	4367.12
208.845	4514.12
214.833	4340.12
220.815	4194.12
226.789	4052.12
232.758	3966.12
238.719	3826.12
244.674	3676.12
250.623	3532.12
256.565	3384.12
262.5	3224.12
268.429	3099.12
274.351	2968.12
280.267	2846.12
286.176	2750.12
292.079	2675.12
297.975	2566.12
303.865	2502.12
309.748	2435.12
315.625	2385.12
321.495	2317.12
327.359	2308.12
333.217	2265.12
339.068	2251.12
344.912	2258.12
350.751	2220.12
356.583	2216.12
362.408	2226.12
368.227	2214.12
374.04	2209.12
379.847	2229.12
385.647	2246.12
391.44	2255.12
397.228	2253.12
403.009	2293.12
408.784	2282.12
414.553	2311.12
420.315	2297.12
426.071	2301.12
431.821	2304.12
437.565	2294.12
443.302	2300.12
449.033	2279.12
454.758	2285.12
460.477	2288.12
466.189	2257.12
471.896	2249.12
477.596	2227.12
483.29	2227.12
488.978	2231.12
494.66	2207.12
500.335	2168.12
506.005	2121.12
511.668	2105.12
517.325	2073.12
522.977	2051.12
528.622	2001.12
534.261	1995.12
539.894	1968.12
545.521	1943.12
551.141	1942.12
556.756	1928.12
562.365	1912.12
567.968	1916.12
573.565	1906.12
579.155	1887.12
584.74	1872.12
590.319	1857.12
595.892	1858.12
601.459	1842.12
607.02	1838.12
612.575	1809.12
618.124	1798.12
623.667	1758.12
629.204	1752.12
634.735	1747.12
640.261	1730.12
645.781	1722.12
651.294	1725.12
656.802	1710.12
662.304	1708.12
667.8	1690.12
673.29	1685.12
678.775	1686.12
684.254	1688.12
689.726	1673.12
695.193	1654.12
700.655	1643.12
706.11	1648.12
711.56	1636.12
717.004	1620.12
722.442	1603.12
727.874	1602.12
733.301	1586.12
738.722	1591.12
744.137	1576.12
749.547	1573.12
754.951	1557.12
760.349	1572.12
765.741	1569.12
771.128	1562.12
776.509	1573.12
781.885	1569.12
787.254	1559.12
792.618	1554.12
797.977	1562.12
803.33	1543.12
808.677	1537.12
814.019	1511.12
819.355	1485.12
824.686	1501.12
830.011	1472.12
835.33	1470.12
840.644	1468.12
845.952	1465.12
851.255	1448.12
856.552	1448.12
861.844	1428.12
867.13	1419.12
872.41	1423.12
877.686	1394.12
882.955	1393.12
888.219	1378.12
893.478	1362.12
898.731	1344.12
903.979	1322.12
909.221	1298.12
914.458	1300.12
919.69	1305.12
924.916	1288.12
930.136	1295.12
935.351	1295.12
940.561	1299.12
945.766	1274.12
950.965	1285.12
956.158	1244.12
961.347	1251.12
966.529	1229.12
971.707	1219.12
976.879	1215.12
982.046	1191.12
987.208	1193.12
992.364	1198.12
997.515	1199.12
1002.66	1205.12
1007.801	1221.12
1012.936	1236.12
1018.066	1218.12
1023.19	1232.12
1028.309	1236.12
1033.423	1245.12
1038.532	1222.12
1043.636	1209.12
1048.734	1209.12
1053.827	1204.12
1058.915	1182.12
1063.998	1179.12
1069.075	1171.12
1074.147	1171.12
1079.214	1181.12
1084.276	1197.12
1089.333	1213.12
1094.385	1219.12
1099.431	1210.12
1104.472	1218.12
1109.509	1216.12
1114.54	1192.12
1119.565	1178.12
1124.586	1149.12
1129.602	1157.12
1134.613	1151.12
1139.618	1147.12
1144.619	1155.12
1149.614	1166.12
1154.604	1174.12
1159.589	1168.12
1164.57	1171.12
1169.545	1184.12
1174.515	1205.12
1179.48	1175.12
1184.44	1159.12
1189.395	1160.12
1194.345	1153.12
1199.29	1146.12
1204.23	1155.12
1209.165	1164.12
1214.095	1161.12
1219.021	1180.12
1223.941	1182.12
1228.856	1185.12
1233.766	1203.12
1238.672	1211.12
1243.572	1190.12
1248.467	1192.12
1253.358	1182.12
1258.244	1143.12
1263.124	1152.12
1268	1138.12
1272.871	1127.12
1277.737	1115.12
1282.599	1105.12
1287.455	1127.12
1292.306	1118.12
1297.153	1140.12
1301.995	1140.12
1306.832	1146.12
1311.664	1159.12
1316.491	1165.12
1321.314	1145.12
1326.132	1144.12
1330.945	1133.12
1335.753	1100.12
1340.556	1094.12
1345.354	1082.12
1350.148	1090.12
1354.937	1086.12
1359.722	1066.12
1364.501	1058.12
1369.276	1051.12
1374.046	1046.12
1378.811	1025.12
1383.572	1035.12
1388.327	1047.12
1393.079	1021.12
1397.825	1026.12
1402.567	1009.12
1407.304	1007.12
1412.036	1001.12
1416.764	1000.12
1421.487	1018.12
1426.205	1004.12
1430.919	1013.12
1435.628	1042.12
1440.333	1028.12
1445.032	1052.12
1449.727	1049.12
1454.418	1061.12
1459.104	1054.12
1463.785	1056.12
1468.462	1030.12
1473.134	1035.12
1477.802	1042.12
1482.465	1025.12
1487.123	1025.12
1491.777	1026.12
1496.426	1030.12
1501.071	1034.12
1505.711	1037.12
1510.347	1062.12
1514.978	1074.12
1519.604	1073.12
1524.226	1075.12
1528.844	1076.12
1533.457	1079.12
1538.065	1085.12
1542.669	1066.12
1547.269	1073.12
1551.864	1068.12
1556.454	1085.12
1561.041	1098.12
1565.622	1099.12
1570.199	1111.12
1574.772	1124.12
1579.34	1146.12
1583.904	1166.12
1588.464	1183.12
1593.019	1202.12
1597.569	1222.12
1602.115	1241.12
1606.657	1238.12
1611.195	1242.12
1615.728	1256.12
1620.256	1286.12
1624.78	1298.12
1629.3	1308.12
1633.816	1313.12
1638.327	1358.12
1642.834	1372.12
1647.336	1388.12
1651.834	1394.12
1656.328	1386.12
1660.817	1382.12
1665.302	1353.12
1669.783	1334.12
1674.259	1281.12
1678.732	1254.12
1683.199	1215.12
1687.663	1170.12
1692.122	1132.12
1696.577	1080.12
1701.028	1051.12
1705.474	996.12
1709.917	968.12
1714.355	965.12
1718.788	935.12
1723.218	932.12
1727.643	914.12
1732.064	897.12
1736.481	872.12
1740.893	850.12
1745.301	822.12
1749.705	813.12
1754.105	784.12
1758.501	767.12
1762.893	765.12
1767.28	754.12
1771.663	742.12
1776.042	742.12
1780.417	744.12
1784.787	746.12
1789.154	748.12
1793.516	740.12
1797.874	737.12
1802.228	753.12
1806.578	733.12
1810.924	717.12
1815.266	690.12
1819.603	687.12
1823.937	689.12
1828.266	683.12
1832.591	674.12
1836.913	669.12
1841.23	657.12
1845.543	671.12
1849.852	668.12
1854.156	674.12
1858.457	672.12
1862.754	684.12
1867.047	680.12
1871.335	691.12
1875.62	694.12
1879.9	686.12
1884.177	683.12
1888.449	689.12
1892.718	678.12
1896.982	685.12
1901.243	684.12
1905.499	688.12
1909.752	665.12
1914	664.12
1918.245	674.12
1922.485	682.12
1926.722	674.12
1930.954	672.12
1935.183	680.12
1939.408	679.12
1943.628	692.12
1947.845	682.12
1952.058	684.12
1956.267	676.12
1960.472	680.12
1964.673	661.12
1968.87	648.12
1973.063	651.12
1977.252	648.12
1981.438	643.12
1985.619	638.12
1989.797	653.12
1993.971	650.12
1998.14	661.12
2002.306	653.12
2006.469	665.12
2010.627	669.12
2014.781	659.12
2018.932	668.12
2023.078	653.12
2027.221	651.12
2031.36	653.12
2035.495	638.12
2039.627	645.12
2043.754	642.12
2047.878	644.12
2051.998	652.12
2056.114	644.12
2060.226	639.12
2064.334	638.12
2068.439	649.12
2072.54	651.12
2076.637	658.12
2080.73	655.12
2084.82	662.12
2088.906	654.12
2092.988	663.12
2097.066	651.12
2101.14	637.12
2105.211	644.12
2109.278	638.12
2113.342	625.12
2117.401	630.12
2121.457	627.12
2125.509	627.12
2129.558	630.12
2133.602	625.12
2137.643	621.12
2141.681	620.12
2145.714	620.12
2149.744	616.12
2153.77	610.12
2157.793	601.12
2161.812	608.12
2165.827	593.12
2169.838	576.12
2173.846	570.12
2177.851	567.12
2181.851	555.12
2185.848	551.12
2189.841	551.12
2193.831	531.12
2197.817	538.12
2201.799	547.12
2205.778	546.12
2209.753	531.12
2213.725	548.12
2217.693	529.12
2221.657	526.12
2225.618	529.12
2229.575	519.12
2233.529	520.12
2237.479	520.12
2241.425	517.12
2245.368	504.12
2249.307	499.12
2253.243	497.12
2257.175	485.12
2261.104	475.12
2265.029	478.12
2268.95	472.12
2272.868	465.12
2276.783	450.12
2280.694	456.12
2284.601	446.12
2288.505	443.12
2292.405	436.12
2296.302	433.12
2300.195	423.12
2304.085	422.12
2307.971	408.12
2311.854	400.12
2315.734	396.12
2319.609	392.12
2323.482	392.12
2327.351	380.12
2331.216	384.12
2335.078	378.12
2338.937	376.12
2342.792	366.12
2346.643	373.12
2350.492	377.12
2354.336	373.12
2358.178	379.12
2362.015	377.12
2365.85	373.12
2369.681	367.12
2373.508	374.12
2377.333	365.12
2381.153	363.12
2384.971	372.12
2388.785	376.12
2392.595	367.12
2396.402	358.12
2400.206	362.12
2404.007	364.12
2407.804	366.12
2411.597	356.12
2415.388	358.12
2419.174	351.12
2422.958	352.12
2426.738	355.12
2430.515	347.12
2434.289	346.12
2438.059	350.12
2441.825	347.12
2445.589	342.12
2449.349	342.12
2453.106	337.12
2456.859	330.12
2460.61	326.12
2464.356	332.12
2468.1	330.12
2471.84	323.12
2475.577	335.12
2479.311	321.12
2483.041	338.12
2486.768	325.12
2490.492	322.12
2494.213	323.12
2497.93	318.12
2501.644	322.12
2505.355	326.12
2509.062	321.12
2512.766	313.12
2516.467	319.12
2520.165	313.12
2523.859	316.12
2527.551	313.12
2531.239	302.12
2534.923	304.12
2538.605	301.12
2542.283	303.12
2545.958	294.12
2549.63	300.12
2553.299	302.12
2556.964	290.12
2560.626	298.12
2564.285	299.12
2567.941	286.12
2571.594	290.12
2575.243	273.12
2578.89	281.12
2582.533	281.12
2586.173	281.12
2589.809	278.12
2593.443	270.12
2597.073	267.12
2600.701	275.12
2604.325	269.12
2607.946	267.12
2611.564	268.12
2615.178	269.12
2618.79	267.12
2622.398	269.12
2626.004	263.12
2629.606	252.12
2633.205	257.12
2636.801	250.12
2640.394	255.12
2643.983	241.12
2647.57	247.12
2651.153	251.12
2654.734	253.12
2658.311	242.12
2661.885	239.12
2665.456	237.12
2669.025	231.12
2672.589	238.12
2676.151	234.12
2679.71	233.12
2683.266	220.12
2686.819	230.12
2690.368	221.12
2693.915	222.12
2697.458	224.12
2700.999	214.12
2704.536	208.12
2708.071	212.12
2711.602	208.12
2715.13	208.12
2718.656	210.12
2722.178	204.12
2725.697	211.12
2729.214	201.12
2732.727	210.12
2736.237	208.12
2739.744	213.12
2743.249	212.12
2746.75	209.12
2750.248	215.12
2753.743	216.12
2757.236	209.12
2760.725	202.12
2764.211	209.12
2767.695	206.12
2771.175	200.12
2774.652	199.12
2778.127	191.12
2781.598	205.12
2785.067	200.12
2788.532	202.12
2791.995	202.12
2795.455	199.12
2798.911	202.12
2802.365	198.12
2805.816	199.12
2809.264	200.12
2812.709	204.12
2816.151	197.12
2819.59	205.12
2823.026	207.12
2826.46	204.12
2829.89	210.12
2833.318	211.12
2836.742	214.12
2840.164	211.12
2843.583	212.12
2846.999	213.12
2850.412	221.12
2853.822	225.12
2857.229	225.12
2860.634	217.12
2864.035	221.12
2867.434	223.12
2870.83	229.12
2874.223	229.12
2877.613	235.12
2881	238.12
2884.385	230.12
2887.766	228.12
2891.145	236.12
2894.521	236.12
2897.894	241.12
2901.264	242.12
2904.631	238.12
2907.996	242.12
2911.358	244.12
2914.717	251.12
2918.073	262.12
2921.426	257.12
2924.777	259.12
2928.124	263.12
2931.469	270.12
2934.811	276.12
2938.15	284.12
2941.487	277.12
2944.821	288.12
2948.152	295.12
2951.48	295.12
2954.805	300.12
2958.128	302.12
2961.447	311.12
2964.765	313.12
2968.079	318.12
2971.39	323.12
2974.699	334.12
2978.005	340.12
2981.308	343.12
2984.609	356.12
2987.907	363.12
2991.202	373.12
2994.494	391.12
2997.784	404.12
3001.07	411.12
3004.355	406.12
3007.636	427.12
3010.915	434.12
3014.191	439.12
3017.464	456.12
3020.734	470.12
3024.002	461.12
3027.267	477.12
3030.53	477.12
3033.789	487.12
3037.046	497.12
3040.301	508.12
3043.552	524.12
3046.801	546.12
3050.048	540.12
3053.291	575.12
3056.532	589.12
3059.771	611.12
3063.006	623.12
3066.239	630.12
3069.469	668.12
3072.697	681.12
3075.922	695.12
3079.144	714.12
3082.364	723.12
3085.581	742.12
3088.795	766.12
3092.007	778.12
3095.216	796.12
3098.423	814.12
3101.627	830.12
3104.828	853.12
3108.026	863.12
3111.222	897.12
3114.416	902.12
3117.607	931.12
3120.795	952.12
3123.98	975.12
3127.163	994.12
3130.344	1010.12
3133.521	1060.12
3136.696	1064.12
3139.869	1082.12
3143.039	1107.12
3146.206	1110.12
3149.371	1123.12
3152.533	1130.12
3155.693	1148.12
3158.85	1160.12
3162.005	1157.12
3165.157	1165.12
3168.306	1185.12
3171.453	1176.12
3174.597	1181.12
3177.739	1186.12
3180.878	1195.12
3184.014	1204.12
3187.149	1201.12
3190.28	1193.12
3193.409	1204.12
3196.536	1195.12
3199.659	1198.12
3202.781	1206.12
3205.9	1222.12
3209.016	1231.12
3212.13	1217.12
3215.241	1217.12
3218.35	1213.12
3221.456	1192.12
3224.56	1183.12
3227.661	1169.12
3230.76	1153.12
3233.856	1160.12
3236.95	1148.12
3240.041	1137.12
3243.13	1120.12
3246.216	1110.12
3249.3	1100.12
3252.382	1109.12
3255.46	1104.12
3258.537	1095.12
3261.611	1066.12
3264.682	1090.12
3267.751	1090.12
3270.818	1088.12
3273.882	1069.12
3276.943	1069.12
3280.002	1050.12
3283.059	1047.12
3286.113	1030.12
3289.165	1021.12
3292.214	1000.12
3295.261	992.12
3298.306	962.12
3301.348	951.12
3304.387	938.12
3307.425	918.12
3310.459	920.12
3313.492	916.12
3316.521	893.12
3319.549	884.12
3322.574	874.12
3325.597	869.12
3328.617	885.12
3331.635	854.12
3334.65	857.12
3337.663	848.12
3340.674	845.12
3343.682	844.12
3346.688	839.12
3349.691	835.12
3352.692	841.12
3355.691	826.12
3358.687	808.12
3361.681	807.12
3364.673	802.12
3367.662	789.12
3370.649	774.12
3373.633	769.12
3376.615	766.12
3379.595	742.12
3382.572	747.12
3385.547	717.12
3388.52	715.12
3391.49	716.12
3394.458	687.12
3397.424	684.12
3400.387	664.12
3403.348	676.12
3406.307	661.12
3409.263	650.12
3412.217	648.12
3415.168	649.12
3418.118	644.12
3421.065	631.12
3424.009	627.12
3426.951	616.12
3429.891	614.12
3432.829	604.12
3435.764	585.12
3438.697	570.12
3441.628	564.12
3444.557	538.12
3447.483	526.12
3450.407	517.12
3453.328	495.12
3456.247	487.12
3459.164	468.12
3462.079	453.12
3464.991	444.12
3467.902	427.12
3470.809	407.12
3473.715	407.12
3476.618	385.12
3479.519	378.12
3482.418	371.12
3485.315	354.12
3488.209	345.12
3491.101	335.12
3493.99	324.12
3496.878	311.12
3499.763	301.12
3502.646	286.12
3505.527	279.12
3508.405	264.12
3511.281	261.12
3514.155	256.12
3517.027	237.12
3519.897	229.12
3522.764	217.12
3525.629	210.12
3528.492	196.12
3531.352	176.12
3534.211	170.12
3537.067	161.12
3539.921	149.12
3542.773	139.12
3545.622	129.12
3548.469	126.12
3551.315	114.12
3554.157	105.12
3556.998	98.12
3559.837	96.12
3562.673	91.12
3565.507	84.12
3568.339	73.12
3571.169	68.12
3573.996	61.12
3576.822	61.12
3579.645	57.12
3582.466	44.12
3585.285	40.12
3588.101	38.12
3590.916	32.12
3593.728	25.12
3596.538	18.12
3599.346	17.12
3602.152	2.12
3604.956	-3.88
3607.757	1.12
3610.556	-4.88
3613.354	-2.88
3616.149	-5.88
3618.942	-8.88
3621.732	-11.88
3624.521	-19.88
3627.307	-21.88
3630.092	-26.88
3632.874	-27.88
3635.654	-35.88
3638.432	-40.88
3641.208	-36.88
3643.982	-40.88
3646.753	-41.88
3649.523	-44.88
3652.29	-49.88
3655.055	-48.88
3657.818	-52.88
3660.579	-56.88
3663.338	-55.88
3666.095	-57.88
3668.849	-66.88
3671.602	-62.88
3674.352	-63.88
3677.101	-69.88
3679.847	-68.88
3682.591	-67.88
3685.333	-73.88
3688.073	-75.88
3690.811	-77.88
3693.547	-79.88
3696.281	-81.88
3699.013	-83.88
3701.742	-84.88
3704.47	-87.88
3707.195	-85.88
3709.919	-84.88
3712.64	-86.88
3715.359	-84.88
3718.076	-91.88
3720.792	-85.88
3723.505	-90.88
3726.216	-90.88
3728.925	-93.88
3731.632	-93.88
3734.336	-98.88
3737.039	-97.88
3739.74	-98.88
3742.439	-97.88
3745.136	-102.88
3747.83	-96.88
3750.523	-98.88
3753.213	-91.88
3755.902	-93.88
3758.589	-92.88
3761.273	-97.88
3763.956	-102.88
3766.636	-101.88
3769.315	-102.88
3771.991	-102.88
3774.665	-101.88
3777.338	-104.88
3780.008	-101.88
3782.677	-101.88
3785.343	-101.88
3788.007	-102.88
3790.67	-105.88
3793.33	-106.88
3795.989	-106.88
3798.645	-107.88
3801.299	-102.88
3803.952	-106.88
3806.602	-103.88
3809.251	-107.88
3811.897	-107.88
3814.542	-107.88
3817.184	-104.88
3819.825	-102.88
3822.463	-106.88
3825.1	-106.88
3827.735	-106.88
3830.367	-107.88
3832.998	-111.88
3835.627	-114.88
3838.253	-111.88
3840.878	-114.88
3843.501	-110.88
3846.122	-111.88
3848.741	-108.88
3851.358	-108.88
3853.973	-104.88
3856.586	-110.88
3859.197	-110.88
3861.806	-116.88
3864.414	-112.88
3867.019	-117.88
3869.622	-113.88
3872.224	-108.88
3874.823	-106.88
3877.421	-106.88
3880.016	-108.88
3882.61	-103.88
3885.202	-100.88
3887.792	-104.88
3890.38	-106.88
3892.966	-108.88
3895.55	-113.88
3898.132	-116.88
3900.713	-115.88
3903.291	-109.88
3905.868	-109.88
3908.442	-111.88
3911.015	-114.88
3913.586	-112.88
3916.155	-111.88
3918.722	-114.88
3921.287	-115.88
3923.85	-118.88
3926.411	-113.88
3928.971	-122.88
3931.528	-116.88
3934.084	-116.88
3936.638	-117.88
3939.19	-114.88
3941.74	-110.88
3944.288	-116.88
3946.834	-114.88
3949.378	-115.88
3951.921	-115.88
3954.462	-112.88
3957	-118.88
3959.537	-117.88
3962.072	-117.88
3964.606	-115.88
3967.137	-114.88
3969.667	-114.88
3972.194	-112.88
3974.72	-114.88
3977.244	-113.88
3979.766	-112.88
3982.286	-111.88
3984.805	-116.88
3987.321	-114.88
3989.836	-114.88
3992.349	-113.88
3994.86	-110.88
3997.369	-117.88
3999.877	-111.88
4002.382	-112.88
4004.886	-111.88
4007.388	-116.88
4009.888	-116.88
4012.386	-116.88
4014.883	-113.88
4017.377	-115.88
4019.87	-115.88
4022.361	-116.88
4024.85	-111.88
4027.338	-111.88
4029.823	-116.88
4032.307	-115.88
4034.789	-116.88
4037.269	-113.88
4039.747	-113.88
4042.224	-112.88
4044.699	-115.88
4047.172	-115.88
4049.643	-114.88
4052.112	-115.88
4054.58	-120.88
4057.046	-116.88
4059.51	-115.88
4061.972	-117.88
4064.432	-116.88
4066.891	-114.88
4069.348	-109.88
4071.803	-110.88
4074.256	-112.88
4076.708	-114.88
4079.158	-110.88
4081.606	-112.88
4084.052	-115.88
4086.497	-114.88
4088.939	-116.88
4091.38	-116.88
4093.819	-118.88
4096.257	-119.88
4098.693	-119.88
4101.127	-119.88
4103.559	-118.88
4105.989	-79.88
4108.418	-70.88
4110.845	-68.88
4113.27	-62.88
4115.694	-61.88
4118.115	-56.88
4120.535	-116.88
4122.954	-113.88
4125.37	-113.88
4127.785	-110.88
4130.198	-112.88
4132.609	-112.88
4135.019	-117.88
4137.427	-119.88
4139.833	-122.88
4142.237	-119.88
