Data from 1CFU2_RamanShift_1.txt Node
Date: Thu Jan 26 10:42:08 IST 2017
User: aro
Spectrometer: QEPB0276
Trigger mode: 0
Integration Time (sec): 5.000000E0
Scans to average: 1
Electric dark correction enabled: true
Nonlinearity correction enabled: false
Boxcar width: 0
XAxis mode: Raman Shifts
Number of Pixels in Spectrum: 1044
>>>>>Begin Spectral Data<<<<<
160.701	-38.75
166.742	-7.75
172.777	102.25
178.805	425.25
184.826	1165.25
190.841	2346.25
196.849	3584.25
202.85	4350.25
208.845	4517.25
214.833	4365.25
220.815	4201.25
226.789	4114.25
232.758	3999.25
238.719	3893.25
244.674	3762.25
250.623	3599.25
256.565	3464.25
262.5	3321.25
268.429	3179.25
274.351	3081.25
280.267	2970.25
286.176	2864.25
292.079	2801.25
297.975	2723.25
303.865	2637.25
309.748	2582.25
315.625	2523.25
321.495	2492.25
327.359	2452.25
333.217	2419.25
339.068	2428.25
344.912	2414.25
350.751	2385.25
356.583	2372.25
362.408	2376.25
368.227	2359.25
374.04	2378.25
379.847	2413.25
385.647	2385.25
391.44	2416.25
397.228	2433.25
403.009	2450.25
408.784	2452.25
414.553	2456.25
420.315	2456.25
426.071	2460.25
431.821	2456.25
437.565	2455.25
443.302	2464.25
449.033	2452.25
454.758	2451.25
460.477	2442.25
466.189	2435.25
471.896	2414.25
477.596	2418.25
483.29	2403.25
488.978	2379.25
494.66	2368.25
500.335	2359.25
506.005	2329.25
511.668	2283.25
517.325	2241.25
522.977	2205.25
528.622	2207.25
534.261	2165.25
539.894	2150.25
545.521	2156.25
551.141	2116.25
556.756	2114.25
562.365	2113.25
567.968	2106.25
573.565	2074.25
579.155	2084.25
584.74	2072.25
590.319	2045.25
595.892	2043.25
601.459	2015.25
607.02	2016.25
612.575	2000.25
618.124	1977.25
623.667	1950.25
629.204	1960.25
634.735	1954.25
640.261	1923.25
645.781	1930.25
651.294	1911.25
656.802	1912.25
662.304	1914.25
667.8	1892.25
673.29	1902.25
678.775	1886.25
684.254	1894.25
689.726	1871.25
695.193	1867.25
700.655	1855.25
706.11	1847.25
711.56	1832.25
717.004	1824.25
722.442	1814.25
727.874	1798.25
733.301	1811.25
738.722	1800.25
744.137	1779.25
749.547	1781.25
754.951	1769.25
760.349	1759.25
765.741	1765.25
771.128	1755.25
776.509	1788.25
781.885	1800.25
787.254	1763.25
792.618	1775.25
797.977	1775.25
803.33	1745.25
808.677	1730.25
814.019	1721.25
819.355	1694.25
824.686	1670.25
830.011	1670.25
835.33	1689.25
840.644	1674.25
845.952	1653.25
851.255	1656.25
856.552	1654.25
861.844	1656.25
867.13	1661.25
872.41	1655.25
877.686	1617.25
882.955	1605.25
888.219	1594.25
893.478	1568.25
898.731	1539.25
903.979	1517.25
909.221	1513.25
914.458	1519.25
919.69	1504.25
924.916	1520.25
930.136	1493.25
935.351	1507.25
940.561	1491.25
945.766	1518.25
950.965	1513.25
956.158	1494.25
961.347	1479.25
966.529	1452.25
971.707	1429.25
976.879	1415.25
982.046	1402.25
987.208	1421.25
992.364	1387.25
997.515	1421.25
1002.66	1424.25
1007.801	1439.25
1012.936	1450.25
1018.066	1448.25
1023.19	1466.25
1028.309	1455.25
1033.423	1462.25
1038.532	1453.25
1043.636	1427.25
1048.734	1437.25
1053.827	1426.25
1058.915	1409.25
1063.998	1408.25
1069.075	1382.25
1074.147	1405.25
1079.214	1405.25
1084.276	1422.25
1089.333	1423.25
1094.385	1445.25
1099.431	1453.25
1104.472	1468.25
1109.509	1445.25
1114.54	1443.25
1119.565	1411.25
1124.586	1396.25
1129.602	1375.25
1134.613	1390.25
1139.618	1378.25
1144.619	1367.25
1149.614	1369.25
1154.604	1383.25
1159.589	1386.25
1164.57	1394.25
1169.545	1398.25
1174.515	1412.25
1179.48	1416.25
1184.44	1387.25
1189.395	1375.25
1194.345	1384.25
1199.29	1367.25
1204.23	1382.25
1209.165	1378.25
1214.095	1386.25
1219.021	1392.25
1223.941	1427.25
1228.856	1426.25
1233.766	1442.25
1238.672	1435.25
1243.572	1425.25
1248.467	1415.25
1253.358	1391.25
1258.244	1382.25
1263.124	1350.25
1268	1351.25
1272.871	1330.25
1277.737	1345.25
1282.599	1320.25
1287.455	1328.25
1292.306	1336.25
1297.153	1354.25
1301.995	1366.25
1306.832	1376.25
1311.664	1370.25
1316.491	1370.25
1321.314	1358.25
1326.132	1353.25
1330.945	1351.25
1335.753	1332.25
1340.556	1321.25
1345.354	1294.25
1350.148	1288.25
1354.937	1291.25
1359.722	1263.25
1364.501	1255.25
1369.276	1248.25
1374.046	1234.25
1378.811	1234.25
1383.572	1236.25
1388.327	1249.25
1393.079	1245.25
1397.825	1214.25
1402.567	1221.25
1407.304	1199.25
1412.036	1192.25
1416.764	1196.25
1421.487	1214.25
1426.205	1196.25
1430.919	1214.25
1435.628	1236.25
1440.333	1251.25
1445.032	1260.25
1449.727	1261.25
1454.418	1276.25
1459.104	1265.25
1463.785	1258.25
1468.462	1250.25
1473.134	1236.25
1477.802	1227.25
1482.465	1235.25
1487.123	1233.25
1491.777	1215.25
1496.426	1219.25
1501.071	1234.25
1505.711	1230.25
1510.347	1246.25
1514.978	1259.25
1519.604	1261.25
1524.226	1269.25
1528.844	1255.25
1533.457	1279.25
1538.065	1270.25
1542.669	1274.25
1547.269	1244.25
1551.864	1255.25
1556.454	1267.25
1561.041	1277.25
1565.622	1291.25
1570.199	1297.25
1574.772	1319.25
1579.34	1339.25
1583.904	1354.25
1588.464	1375.25
1593.019	1400.25
1597.569	1402.25
1602.115	1413.25
1606.657	1418.25
1611.195	1419.25
1615.728	1430.25
1620.256	1441.25
1624.78	1452.25
1629.3	1481.25
1633.816	1500.25
1638.327	1509.25
1642.834	1536.25
1647.336	1544.25
1651.834	1551.25
1656.328	1542.25
1660.817	1524.25
1665.302	1512.25
1669.783	1489.25
1674.259	1467.25
1678.732	1412.25
1683.199	1385.25
1687.663	1345.25
1692.122	1288.25
1696.577	1242.25
1701.028	1209.25
1705.474	1160.25
1709.917	1131.25
1714.355	1114.25
1718.788	1092.25
1723.218	1093.25
1727.643	1068.25
1732.064	1051.25
1736.481	1033.25
1740.893	1020.25
1745.301	976.25
1749.705	968.25
1754.105	947.25
1758.501	919.25
1762.893	930.25
1767.28	913.25
1771.663	910.25
1776.042	900.25
1780.417	904.25
1784.787	901.25
1789.154	908.25
1793.516	914.25
1797.874	905.25
1802.228	891.25
1806.578	871.25
1810.924	872.25
1815.266	859.25
1819.603	839.25
1823.937	848.25
1828.266	834.25
1832.591	826.25
1836.913	829.25
1841.23	827.25
1845.543	823.25
1849.852	841.25
1854.156	816.25
1858.457	821.25
1862.754	836.25
1867.047	832.25
1871.335	841.25
1875.62	828.25
1879.9	843.25
1884.177	836.25
1888.449	841.25
1892.718	846.25
1896.982	829.25
1901.243	835.25
1905.499	820.25
1909.752	823.25
1914	812.25
1918.245	823.25
1922.485	810.25
1926.722	822.25
1930.954	834.25
1935.183	814.25
1939.408	829.25
1943.628	832.25
1947.845	826.25
1952.058	837.25
1956.267	821.25
1960.472	809.25
1964.673	808.25
1968.87	793.25
1973.063	776.25
1977.252	797.25
1981.438	777.25
1985.619	784.25
1989.797	781.25
1993.971	771.25
1998.14	788.25
2002.306	785.25
2006.469	788.25
2010.627	785.25
2014.781	789.25
2018.932	799.25
2023.078	783.25
2027.221	777.25
2031.36	772.25
2035.495	769.25
2039.627	752.25
2043.754	750.25
2047.878	758.25
2051.998	768.25
2056.114	771.25
2060.226	762.25
2064.334	755.25
2068.439	771.25
2072.54	777.25
2076.637	766.25
2080.73	763.25
2084.82	762.25
2088.906	783.25
2092.988	783.25
2097.066	775.25
2101.14	762.25
2105.211	771.25
2109.278	760.25
2113.342	753.25
2117.401	749.25
2121.457	751.25
2125.509	741.25
2129.558	748.25
2133.602	731.25
2137.643	744.25
2141.681	735.25
2145.714	716.25
2149.744	727.25
2153.77	715.25
2157.793	712.25
2161.812	699.25
2165.827	703.25
2169.838	693.25
2173.846	680.25
2177.851	672.25
2181.851	672.25
2185.848	665.25
2189.841	651.25
2193.831	642.25
2197.817	635.25
2201.799	647.25
2205.778	638.25
2209.753	633.25
2213.725	635.25
2217.693	648.25
2221.657	635.25
2225.618	630.25
2229.575	638.25
2233.529	623.25
2237.479	624.25
2241.425	608.25
2245.368	611.25
2249.307	605.25
2253.243	597.25
2257.175	581.25
2261.104	582.25
2265.029	567.25
2268.95	568.25
2272.868	559.25
2276.783	556.25
2280.694	547.25
2284.601	536.25
2288.505	529.25
2292.405	522.25
2296.302	518.25
2300.195	519.25
2304.085	508.25
2307.971	499.25
2311.854	493.25
2315.734	482.25
2319.609	484.25
2323.482	482.25
2327.351	477.25
2331.216	464.25
2335.078	459.25
2338.937	463.25
2342.792	460.25
2346.643	454.25
2350.492	455.25
2354.336	451.25
2358.178	463.25
2362.015	450.25
2365.85	458.25
2369.681	452.25
2373.508	457.25
2377.333	454.25
2381.153	471.25
2384.971	463.25
2388.785	448.25
2392.595	454.25
2396.402	457.25
2400.206	448.25
2404.007	445.25
2407.804	442.25
2411.597	442.25
2415.388	445.25
2419.174	447.25
2422.958	430.25
2426.738	439.25
2430.515	450.25
2434.289	432.25
2438.059	421.25
2441.825	429.25
2445.589	419.25
2449.349	419.25
2453.106	426.25
2456.859	417.25
2460.61	417.25
2464.356	410.25
2468.1	407.25
2471.84	402.25
2475.577	398.25
2479.311	411.25
2483.041	412.25
2486.768	397.25
2490.492	401.25
2494.213	400.25
2497.93	400.25
2501.644	391.25
2505.355	384.25
2509.062	398.25
2512.766	408.25
2516.467	399.25
2520.165	394.25
2523.859	383.25
2527.551	391.25
2531.239	381.25
2534.923	372.25
2538.605	379.25
2542.283	370.25
2545.958	374.25
2549.63	366.25
2553.299	369.25
2556.964	361.25
2560.626	356.25
2564.285	363.25
2567.941	369.25
2571.594	372.25
2575.243	360.25
2578.89	363.25
2582.533	348.25
2586.173	341.25
2589.809	340.25
2593.443	348.25
2597.073	342.25
2600.701	334.25
2604.325	341.25
2607.946	334.25
2611.564	338.25
2615.178	332.25
2618.79	321.25
2622.398	336.25
2626.004	325.25
2629.606	320.25
2633.205	323.25
2636.801	310.25
2640.394	313.25
2643.983	299.25
2647.57	313.25
2651.153	308.25
2654.734	304.25
2658.311	288.25
2661.885	296.25
2665.456	296.25
2669.025	290.25
2672.589	295.25
2676.151	295.25
2679.71	289.25
2683.266	281.25
2686.819	283.25
2690.368	276.25
2693.915	264.25
2697.458	272.25
2700.999	269.25
2704.536	265.25
2708.071	268.25
2711.602	263.25
2715.13	260.25
2718.656	264.25
2722.178	261.25
2725.697	260.25
2729.214	256.25
2732.727	269.25
2736.237	251.25
2739.744	267.25
2743.249	265.25
2746.75	257.25
2750.248	260.25
2753.743	262.25
2757.236	254.25
2760.725	252.25
2764.211	253.25
2767.695	251.25
2771.175	246.25
2774.652	252.25
2778.127	243.25
2781.598	244.25
2785.067	247.25
2788.532	238.25
2791.995	239.25
2795.455	243.25
2798.911	243.25
2802.365	245.25
2805.816	250.25
2809.264	248.25
2812.709	256.25
2816.151	249.25
2819.59	248.25
2823.026	240.25
2826.46	242.25
2829.89	251.25
2833.318	238.25
2836.742	248.25
2840.164	247.25
2843.583	247.25
2846.999	253.25
2850.412	248.25
2853.822	245.25
2857.229	255.25
2860.634	259.25
2864.035	256.25
2867.434	267.25
2870.83	272.25
2874.223	267.25
2877.613	273.25
2881	270.25
2884.385	262.25
2887.766	262.25
2891.145	260.25
2894.521	266.25
2897.894	272.25
2901.264	269.25
2904.631	265.25
2907.996	268.25
2911.358	271.25
2914.717	279.25
2918.073	278.25
2921.426	282.25
2924.777	294.25
2928.124	289.25
2931.469	295.25
2934.811	298.25
2938.15	300.25
2941.487	305.25
2944.821	313.25
2948.152	316.25
2951.48	309.25
2954.805	322.25
2958.128	330.25
2961.447	325.25
2964.765	323.25
2968.079	334.25
2971.39	338.25
2974.699	351.25
2978.005	351.25
2981.308	357.25
2984.609	378.25
2987.907	374.25
2991.202	378.25
2994.494	393.25
2997.784	413.25
3001.07	414.25
3004.355	434.25
3007.636	436.25
3010.915	441.25
3014.191	457.25
3017.464	466.25
3020.734	458.25
3024.002	480.25
3027.267	480.25
3030.53	481.25
3033.789	484.25
3037.046	496.25
3040.301	505.25
3043.552	512.25
3046.801	537.25
3050.048	549.25
3053.291	567.25
3056.532	571.25
3059.771	599.25
3063.006	612.25
3066.239	637.25
3069.469	651.25
3072.697	657.25
3075.922	686.25
3079.144	686.25
3082.364	699.25
3085.581	723.25
3088.795	743.25
3092.007	753.25
3095.216	777.25
3098.423	796.25
3101.627	824.25
3104.828	828.25
3108.026	836.25
3111.222	862.25
3114.416	869.25
3117.607	891.25
3120.795	922.25
3123.98	940.25
3127.163	959.25
3130.344	968.25
3133.521	1004.25
3136.696	1019.25
3139.869	1029.25
3143.039	1072.25
3146.206	1073.25
3149.371	1091.25
3152.533	1096.25
3155.693	1102.25
3158.85	1116.25
3162.005	1110.25
3165.157	1135.25
3168.306	1123.25
3171.453	1120.25
3174.597	1130.25
3177.739	1150.25
3180.878	1132.25
3184.014	1133.25
3187.149	1157.25
3190.28	1144.25
3193.409	1144.25
3196.536	1155.25
3199.659	1150.25
3202.781	1162.25
3205.9	1160.25
3209.016	1174.25
3212.13	1163.25
3215.241	1159.25
3218.35	1138.25
3221.456	1146.25
3224.56	1123.25
3227.661	1115.25
3230.76	1109.25
3233.856	1099.25
3236.95	1075.25
3240.041	1077.25
3243.13	1069.25
3246.216	1054.25
3249.3	1040.25
3252.382	1052.25
3255.46	1045.25
3258.537	1034.25
3261.611	1024.25
3264.682	1030.25
3267.751	1018.25
3270.818	1025.25
3273.882	1018.25
3276.943	1008.25
3280.002	1016.25
3283.059	992.25
3286.113	988.25
3289.165	968.25
3292.214	960.25
3295.261	941.25
3298.306	944.25
3301.348	918.25
3304.387	889.25
3307.425	876.25
3310.459	864.25
3313.492	857.25
3316.521	842.25
3319.549	839.25
3322.574	837.25
3325.597	832.25
3328.617	816.25
3331.635	820.25
3334.65	812.25
3337.663	820.25
3340.674	794.25
3343.682	802.25
3346.688	797.25
3349.691	779.25
3352.692	795.25
3355.691	764.25
3358.687	777.25
3361.681	762.25
3364.673	758.25
3367.662	753.25
3370.649	733.25
3373.633	722.25
3376.615	731.25
3379.595	704.25
3382.572	698.25
3385.547	692.25
3388.52	680.25
3391.49	673.25
3394.458	661.25
3397.424	649.25
3400.387	646.25
3403.348	637.25
3406.307	630.25
3409.263	639.25
3412.217	623.25
3415.168	620.25
3418.118	609.25
3421.065	598.25
3424.009	582.25
3426.951	580.25
3429.891	565.25
3432.829	551.25
3435.764	549.25
3438.697	539.25
3441.628	526.25
3444.557	512.25
3447.483	495.25
3450.407	487.25
3453.328	454.25
3456.247	457.25
3459.164	436.25
3462.079	429.25
3464.991	412.25
3467.902	402.25
3470.809	388.25
3473.715	385.25
3476.618	363.25
3479.519	357.25
3482.418	348.25
3485.315	334.25
3488.209	324.25
3491.101	311.25
3493.99	308.25
3496.878	288.25
3499.763	285.25
3502.646	274.25
3505.527	274.25
3508.405	260.25
3511.281	247.25
3514.155	238.25
3517.027	224.25
3519.897	217.25
3522.764	203.25
3525.629	189.25
3528.492	180.25
3531.352	168.25
3534.211	153.25
3537.067	152.25
3539.921	135.25
3542.773	132.25
3545.622	118.25
3548.469	106.25
3551.315	100.25
3554.157	98.25
3556.998	93.25
3559.837	86.25
3562.673	89.25
3565.507	77.25
3568.339	75.25
3571.169	60.25
3573.996	54.25
3576.822	53.25
3579.645	49.25
3582.466	37.25
3585.285	36.25
3588.101	30.25
3590.916	24.25
3593.728	21.25
3596.538	14.25
3599.346	15.25
3602.152	7.25
3604.956	-1.75
3607.757	1.25
3610.556	-2.75
3613.354	-12.75
3616.149	-17.75
3618.942	-17.75
3621.732	-18.75
3624.521	-23.75
3627.307	-25.75
3630.092	-25.75
3632.874	-33.75
3635.654	-33.75
3638.432	-38.75
3641.208	-38.75
3643.982	-40.75
3646.753	-47.75
3649.523	-50.75
3652.29	-43.75
3655.055	-52.75
3657.818	-53.75
3660.579	-54.75
3663.338	-61.75
3666.095	-60.75
3668.849	-66.75
3671.602	-64.75
3674.352	-70.75
3677.101	-68.75
3679.847	-70.75
3682.591	-72.75
3685.333	-71.75
3688.073	-72.75
3690.811	-79.75
3693.547	-77.75
3696.281	-85.75
3699.013	-82.75
3701.742	-83.75
3704.47	-85.75
3707.195	-83.75
3709.919	-84.75
3712.64	-86.75
3715.359	-89.75
3718.076	-85.75
3720.792	-89.75
3723.505	-90.75
3726.216	-92.75
3728.925	-95.75
3731.632	-98.75
3734.336	-97.75
3737.039	-98.75
3739.74	-97.75
3742.439	-96.75
3745.136	-96.75
3747.83	-95.75
3750.523	-96.75
3753.213	-95.75
3755.902	-91.75
3758.589	-95.75
3761.273	-100.75
3763.956	-100.75
3766.636	-103.75
3769.315	-105.75
3771.991	-104.75
3774.665	-100.75
3777.338	-101.75
3780.008	-100.75
3782.677	-100.75
3785.343	-99.75
3788.007	-101.75
3790.67	-99.75
3793.33	-102.75
3795.989	-104.75
3798.645	-105.75
3801.299	-106.75
3803.952	-109.75
3806.602	-104.75
3809.251	-103.75
3811.897	-104.75
3814.542	-108.75
3817.184	-105.75
3819.825	-102.75
3822.463	-102.75
3825.1	-110.75
3827.735	-108.75
3830.367	-108.75
3832.998	-109.75
3835.627	-110.75
3838.253	-110.75
3840.878	-114.75
3843.501	-110.75
3846.122	-111.75
3848.741	-110.75
3851.358	-105.75
3853.973	-103.75
3856.586	-111.75
3859.197	-110.75
3861.806	-115.75
3864.414	-110.75
3867.019	-116.75
3869.622	-116.75
3872.224	-113.75
3874.823	-111.75
3877.421	-103.75
3880.016	-107.75
3882.61	-99.75
3885.202	-98.75
3887.792	-101.75
3890.38	-105.75
3892.966	-109.75
3895.55	-112.75
3898.132	-116.75
3900.713	-114.75
3903.291	-113.75
3905.868	-114.75
3908.442	-116.75
3911.015	-112.75
3913.586	-113.75
3916.155	-110.75
3918.722	-114.75
3921.287	-115.75
3923.85	-113.75
3926.411	-113.75
3928.971	-114.75
3931.528	-114.75
3934.084	-116.75
3936.638	-114.75
3939.19	-113.75
3941.74	-113.75
3944.288	-117.75
3946.834	-113.75
3949.378	-116.75
3951.921	-116.75
3954.462	-114.75
3957	-117.75
3959.537	-116.75
3962.072	-117.75
3964.606	-114.75
3967.137	-110.75
3969.667	-116.75
3972.194	-114.75
3974.72	-113.75
3977.244	-113.75
3979.766	-115.75
3982.286	-113.75
3984.805	-118.75
3987.321	-113.75
3989.836	-111.75
3992.349	-113.75
3994.86	-112.75
3997.369	-118.75
3999.877	-112.75
4002.382	-115.75
4004.886	-112.75
4007.388	-116.75
4009.888	-116.75
4012.386	-113.75
4014.883	-113.75
4017.377	-112.75
4019.87	-114.75
4022.361	-117.75
4024.85	-113.75
4027.338	-113.75
4029.823	-115.75
4032.307	-116.75
4034.789	-114.75
4037.269	-116.75
4039.747	-116.75
4042.224	-109.75
4044.699	-114.75
4047.172	-118.75
4049.643	-116.75
4052.112	-114.75
4054.58	-115.75
4057.046	-115.75
4059.51	-113.75
4061.972	-115.75
4064.432	-118.75
4066.891	-112.75
4069.348	-110.75
4071.803	-109.75
4074.256	-110.75
4076.708	-110.75
4079.158	-113.75
4081.606	-114.75
4084.052	-116.75
4086.497	-113.75
4088.939	-115.75
4091.38	-118.75
4093.819	-115.75
4096.257	-117.75
4098.693	-121.75
4101.127	-121.75
4103.559	-117.75
4105.989	-75.75
4108.418	-72.75
4110.845	-70.75
4113.27	-66.75
4115.694	-63.75
4118.115	-55.75
4120.535	-115.75
4122.954	-111.75
4125.37	-110.75
4127.785	-111.75
4130.198	-113.75
4132.609	-109.75
4135.019	-115.75
4137.427	-119.75
4139.833	-124.75
4142.237	-120.75
