Data from I0.2_T5s_Bsub_water_1-10^4_1_RamanShift_11-55-16-108.txt Node
Date: Mon Mar 13 11:55:16 IST 2017
User: aro
Spectrometer: QEPB0276
Trigger mode: 0
Integration Time (sec): 5.000000E0
Scans to average: 1
Electric dark correction enabled: true
Nonlinearity correction enabled: false
Boxcar width: 0
XAxis mode: Raman Shifts
Number of Pixels in Spectrum: 1044
>>>>>Begin Spectral Data<<<<<
160.701	3.88
166.742	-1.12
172.777	-2.12
178.805	0.88
184.826	1.88
190.841	4.88
196.849	4.88
202.85	4.88
208.845	3.88
214.833	8.88
220.815	6.88
226.789	4.88
232.758	-2.12
238.719	-3.12
244.674	0.88
250.623	-2.12
256.565	-1.12
262.5	-1.12
268.429	-0.12
274.351	-0.12
280.267	-1.12
286.176	1.88
292.079	-0.12
297.975	4.88
303.865	0.88
309.748	4.88
315.625	2.88
321.495	4.88
327.359	3.88
333.217	3.88
339.068	4.88
344.912	3.88
350.751	2.88
356.583	2.88
362.408	1.88
368.227	-1.12
374.04	-2.12
379.847	-1.12
385.647	-1.12
391.44	1.88
397.228	-2.12
403.009	1.88
408.784	0.88
414.553	1.88
420.315	3.88
426.071	1.88
431.821	7.88
437.565	5.88
443.302	2.88
449.033	2.88
454.758	1.88
460.477	1.88
466.189	0.88
471.896	-4.12
477.596	-2.12
483.29	-1.12
488.978	-0.12
494.66	-2.12
500.335	-2.12
506.005	0.88
511.668	1.88
517.325	-3.12
522.977	5.88
528.622	2.88
534.261	1.88
539.894	1.88
545.521	1.88
551.141	2.88
556.756	4.88
562.365	5.88
567.968	3.88
573.565	0.88
579.155	2.88
584.74	2.88
590.319	-3.12
595.892	-1.12
601.459	0.88
607.02	-3.12
612.575	-1.12
618.124	-0.12
623.667	-0.12
629.204	0.88
634.735	0.88
640.261	1.88
645.781	-5.12
651.294	-1.12
656.802	-1.12
662.304	3.88
667.8	2.88
673.29	-3.12
678.775	0.88
684.254	-0.12
689.726	3.88
695.193	2.88
700.655	1.88
706.11	2.88
711.56	-2.12
717.004	0.88
722.442	-0.12
727.874	-1.12
733.301	-1.12
738.722	2.88
744.137	2.88
749.547	0.88
754.951	-1.12
760.349	1.88
765.741	3.88
771.128	2.88
776.509	-1.12
781.885	1.88
787.254	-0.12
792.618	0.88
797.977	1.88
803.33	-1.12
808.677	0.88
814.019	-3.12
819.355	1.88
824.686	2.88
830.011	1.88
835.33	0.88
840.644	1.88
845.952	0.88
851.255	-0.12
856.552	4.88
861.844	3.88
867.13	3.88
872.41	2.88
877.686	2.88
882.955	2.88
888.219	-0.12
893.478	-0.12
898.731	1.88
903.979	-0.12
909.221	1.88
914.458	0.88
919.69	2.88
924.916	-3.12
930.136	-3.12
935.351	-3.12
940.561	1.88
945.766	1.88
950.965	0.88
956.158	1.88
961.347	-1.12
966.529	4.88
971.707	2.88
976.879	0.88
982.046	2.88
987.208	0.88
992.364	1.88
997.515	5.88
1002.66	2.88
1007.801	3.88
1012.936	-1.12
1018.066	-3.12
1023.19	1.88
1028.309	-1.12
1033.423	-3.12
1038.532	-1.12
1043.636	-1.12
1048.734	4.88
1053.827	-1.12
1058.915	-2.12
1063.998	0.88
1069.075	0.88
1074.147	-0.12
1079.214	2.88
1084.276	5.88
1089.333	3.88
1094.385	3.88
1099.431	6.88
1104.472	3.88
1109.509	3.88
1114.54	-0.12
1119.565	0.88
1124.586	3.88
1129.602	4.88
1134.613	-2.12
1139.618	-4.12
1144.619	-3.12
1149.614	-2.12
1154.604	-5.12
1159.589	-0.12
1164.57	-2.12
1169.545	-0.12
1174.515	2.88
1179.48	1.88
1184.44	1.88
1189.395	3.88
1194.345	5.88
1199.29	2.88
1204.23	5.88
1209.165	5.88
1214.095	1.88
1219.021	4.88
1223.941	0.88
1228.856	-1.12
1233.766	-0.12
1238.672	-1.12
1243.572	-3.12
1248.467	0.88
1253.358	-0.12
1258.244	-2.12
1263.124	-1.12
1268	-3.12
1272.871	-3.12
1277.737	0.88
1282.599	1.88
1287.455	3.88
1292.306	3.88
1297.153	3.88
1301.995	1.88
1306.832	6.88
1311.664	7.88
1316.491	4.88
1321.314	2.88
1326.132	1.88
1330.945	4.88
1335.753	0.88
1340.556	-1.12
1345.354	1.88
1350.148	0.88
1354.937	-4.12
1359.722	-1.12
1364.501	-1.12
1369.276	-4.12
1374.046	-0.12
1378.811	-0.12
1383.572	0.88
1388.327	-1.12
1393.079	-0.12
1397.825	3.88
1402.567	4.88
1407.304	2.88
1412.036	5.88
1416.764	3.88
1421.487	3.88
1426.205	1.88
1430.919	-0.12
1435.628	-0.12
1440.333	-1.12
1445.032	1.88
1449.727	0.88
1454.418	-0.12
1459.104	-0.12
1463.785	-2.12
1468.462	-0.12
1473.134	-3.12
1477.802	-3.12
1482.465	0.88
1487.123	-1.12
1491.777	3.88
1496.426	5.88
1501.071	3.88
1505.711	2.88
1510.347	2.88
1514.978	-0.12
1519.604	1.88
1524.226	6.88
1528.844	4.88
1533.457	2.88
1538.065	0.88
1542.669	2.88
1547.269	-0.12
1551.864	0.88
1556.454	0.88
1561.041	4.88
1565.622	-4.12
1570.199	-1.12
1574.772	-2.12
1579.34	-1.12
1583.904	-1.12
1588.464	1.88
1593.019	3.88
1597.569	1.88
1602.115	3.88
1606.657	1.88
1611.195	1.88
1615.728	-2.12
1620.256	0.88
1624.78	0.88
1629.3	1.88
1633.816	-0.12
1638.327	0.88
1642.834	4.88
1647.336	3.88
1651.834	-1.12
1656.328	2.88
1660.817	2.88
1665.302	0.88
1669.783	1.88
1674.259	-2.12
1678.732	0.88
1683.199	-2.12
1687.663	1.88
1692.122	1.88
1696.577	2.88
1701.028	-1.12
1705.474	-1.12
1709.917	-0.12
1714.355	2.88
1718.788	1.88
1723.218	1.88
1727.643	-0.12
1732.064	0.88
1736.481	2.88
1740.893	2.88
1745.301	-0.12
1749.705	0.88
1754.105	-3.12
1758.501	0.88
1762.893	-2.12
1767.28	-1.12
1771.663	0.88
1776.042	-0.12
1780.417	-0.12
1784.787	0.88
1789.154	-0.12
1793.516	0.88
1797.874	1.88
1802.228	-1.12
1806.578	1.88
1810.924	0.88
1815.266	1.88
1819.603	2.88
1823.937	0.88
1828.266	0.88
1832.591	5.88
1836.913	0.88
1841.23	1.88
1845.543	-1.12
1849.852	0.88
1854.156	-1.12
1858.457	4.88
1862.754	-0.12
1867.047	0.88
1871.335	-2.12
1875.62	-0.12
1879.9	-4.12
1884.177	-1.12
1888.449	-1.12
1892.718	0.88
1896.982	-2.12
1901.243	1.88
1905.499	0.88
1909.752	1.88
1914	2.88
1918.245	2.88
1922.485	-1.12
1926.722	1.88
1930.954	-1.12
1935.183	2.88
1939.408	1.88
1943.628	-2.12
1947.845	-1.12
1952.058	-3.12
1956.267	0.88
1960.472	-1.12
1964.673	-1.12
1968.87	0.88
1973.063	1.88
1977.252	0.88
1981.438	1.88
1985.619	0.88
1989.797	-2.12
1993.971	1.88
1998.14	1.88
2002.306	0.88
2006.469	-4.12
2010.627	1.88
2014.781	-0.12
2018.932	1.88
2023.078	-0.12
2027.221	0.88
2031.36	2.88
2035.495	0.88
2039.627	1.88
2043.754	-1.12
2047.878	2.88
2051.998	0.88
2056.114	-1.12
2060.226	2.88
2064.334	-1.12
2068.439	-0.12
2072.54	0.88
2076.637	4.88
2080.73	1.88
2084.82	0.88
2088.906	-0.12
2092.988	1.88
2097.066	1.88
2101.14	-4.12
2105.211	-1.12
2109.278	0.88
2113.342	0.88
2117.401	-0.12
2121.457	-2.12
2125.509	-0.12
2129.558	4.88
2133.602	2.88
2137.643	-0.12
2141.681	3.88
2145.714	2.88
2149.744	1.88
2153.77	2.88
2157.793	3.88
2161.812	1.88
2165.827	2.88
2169.838	2.88
2173.846	-1.12
2177.851	0.88
2181.851	-0.12
2185.848	1.88
2189.841	-0.12
2193.831	-1.12
2197.817	-1.12
2201.799	1.88
2205.778	5.88
2209.753	-0.12
2213.725	1.88
2217.693	-1.12
2221.657	1.88
2225.618	1.88
2229.575	0.88
2233.529	0.88
2237.479	-3.12
2241.425	-0.12
2245.368	-0.12
2249.307	-0.12
2253.243	-2.12
2257.175	-0.12
2261.104	-1.12
2265.029	-0.12
2268.95	-1.12
2272.868	-2.12
2276.783	-0.12
2280.694	-0.12
2284.601	4.88
2288.505	1.88
2292.405	0.88
2296.302	3.88
2300.195	5.88
2304.085	2.88
2307.971	4.88
2311.854	3.88
2315.734	0.88
2319.609	0.88
2323.482	1.88
2327.351	-2.12
2331.216	0.88
2335.078	-1.12
2338.937	-3.12
2342.792	-6.12
2346.643	-1.12
2350.492	-0.12
2354.336	0.88
2358.178	-1.12
2362.015	-2.12
2365.85	3.88
2369.681	-0.12
2373.508	1.88
2377.333	3.88
2381.153	4.88
2384.971	4.88
2388.785	4.88
2392.595	1.88
2396.402	5.88
2400.206	2.88
2404.007	2.88
2407.804	0.88
2411.597	-0.12
2415.388	-3.12
2419.174	0.88
2422.958	0.88
2426.738	-4.12
2430.515	-3.12
2434.289	-5.12
2438.059	-3.12
2441.825	-3.12
2445.589	1.88
2449.349	-1.12
2453.106	2.88
2456.859	2.88
2460.61	2.88
2464.356	1.88
2468.1	1.88
2471.84	2.88
2475.577	2.88
2479.311	3.88
2483.041	0.88
2486.768	0.88
2490.492	0.88
2494.213	0.88
2497.93	-2.12
2501.644	0.88
2505.355	-0.12
2509.062	-3.12
2512.766	-3.12
2516.467	-3.12
2520.165	-1.12
2523.859	-1.12
2527.551	0.88
2531.239	3.88
2534.923	-2.12
2538.605	-0.12
2542.283	-0.12
2545.958	1.88
2549.63	-0.12
2553.299	-2.12
2556.964	2.88
2560.626	1.88
2564.285	2.88
2567.941	1.88
2571.594	-1.12
2575.243	2.88
2578.89	-1.12
2582.533	-0.12
2586.173	-3.12
2589.809	1.88
2593.443	-2.12
2597.073	-0.12
2600.701	-1.12
2604.325	-0.12
2607.946	-0.12
2611.564	1.88
2615.178	0.88
2618.79	-2.12
2622.398	0.88
2626.004	-4.12
2629.606	0.88
2633.205	2.88
2636.801	2.88
2640.394	1.88
2643.983	-2.12
2647.57	1.88
2651.153	-1.12
2654.734	0.88
2658.311	-1.12
2661.885	-2.12
2665.456	-1.12
2669.025	0.88
2672.589	-2.12
2676.151	1.88
2679.71	0.88
2683.266	-0.12
2686.819	0.88
2690.368	1.88
2693.915	1.88
2697.458	3.88
2700.999	-0.12
2704.536	0.88
2708.071	-0.12
2711.602	0.88
2715.13	-3.12
2718.656	-0.12
2722.178	-1.12
2725.697	-2.12
2729.214	-0.12
2732.727	-0.12
2736.237	-0.12
2739.744	-0.12
2743.249	1.88
2746.75	1.88
2750.248	1.88
2753.743	3.88
2757.236	-2.12
2760.725	0.88
2764.211	3.88
2767.695	2.88
2771.175	-0.12
2774.652	-0.12
2778.127	0.88
2781.598	1.88
2785.067	-0.12
2788.532	-2.12
2791.995	-4.12
2795.455	-2.12
2798.911	-1.12
2802.365	0.88
2805.816	-0.12
2809.264	-0.12
2812.709	-1.12
2816.151	1.88
2819.59	-0.12
2823.026	0.88
2826.46	3.88
2829.89	2.88
2833.318	2.88
2836.742	3.88
2840.164	4.88
2843.583	5.88
2846.999	2.88
2850.412	0.88
2853.822	-2.12
2857.229	-2.12
2860.634	-5.12
2864.035	-3.12
2867.434	-3.12
2870.83	-1.12
2874.223	2.88
2877.613	-0.12
2881	3.88
2884.385	0.88
2887.766	1.88
2891.145	2.88
2894.521	-0.12
2897.894	4.88
2901.264	-0.12
2904.631	-0.12
2907.996	3.88
2911.358	3.88
2914.717	3.88
2918.073	-1.12
2921.426	0.88
2924.777	0.88
2928.124	0.88
2931.469	-3.12
2934.811	-3.12
2938.15	-2.12
2941.487	-2.12
2944.821	-0.12
2948.152	-3.12
2951.48	0.88
2954.805	-5.12
2958.128	3.88
2961.447	-1.12
2964.765	2.88
2968.079	5.88
2971.39	2.88
2974.699	3.88
2978.005	1.88
2981.308	6.88
2984.609	2.88
2987.907	1.88
2991.202	-0.12
2994.494	-0.12
2997.784	-0.12
3001.07	1.88
3004.355	3.88
3007.636	-2.12
3010.915	1.88
3014.191	0.88
3017.464	-1.12
3020.734	-1.12
3024.002	-1.12
3027.267	-1.12
3030.53	0.88
3033.789	-2.12
3037.046	-1.12
3040.301	-0.12
3043.552	1.88
3046.801	1.88
3050.048	1.88
3053.291	0.88
3056.532	3.88
3059.771	-0.12
3063.006	2.88
3066.239	4.88
3069.469	1.88
3072.697	2.88
3075.922	-1.12
3079.144	-1.12
3082.364	1.88
3085.581	-1.12
3088.795	-2.12
3092.007	-3.12
3095.216	-2.12
3098.423	-5.12
3101.627	-1.12
3104.828	-3.12
3108.026	-1.12
3111.222	0.88
3114.416	1.88
3117.607	3.88
3120.795	2.88
3123.98	-1.12
3127.163	-0.12
3130.344	1.88
3133.521	0.88
3136.696	6.88
3139.869	0.88
3143.039	0.88
3146.206	-0.12
3149.371	1.88
3152.533	-0.12
3155.693	-1.12
3158.85	-0.12
3162.005	-0.12
3165.157	-3.12
3168.306	-0.12
3171.453	-0.12
3174.597	-2.12
3177.739	1.88
3180.878	-2.12
3184.014	-0.12
3187.149	-0.12
3190.28	1.88
3193.409	-0.12
3196.536	3.88
3199.659	1.88
3202.781	0.88
3205.9	3.88
3209.016	0.88
3212.13	-2.12
3215.241	-0.12
3218.35	-0.12
3221.456	0.88
3224.56	-2.12
3227.661	0.88
3230.76	-0.12
3233.856	-0.12
3236.95	0.88
3240.041	-3.12
3243.13	-0.12
3246.216	1.88
3249.3	0.88
3252.382	0.88
3255.46	1.88
3258.537	2.88
3261.611	1.88
3264.682	0.88
3267.751	3.88
3270.818	1.88
3273.882	2.88
3276.943	3.88
3280.002	0.88
3283.059	1.88
3286.113	1.88
3289.165	-2.12
3292.214	-1.12
3295.261	-0.12
3298.306	-0.12
3301.348	2.88
3304.387	-0.12
3307.425	-2.12
3310.459	-0.12
3313.492	3.88
3316.521	2.88
3319.549	-0.12
3322.574	1.88
3325.597	2.88
3328.617	-1.12
3331.635	-3.12
3334.65	-3.12
3337.663	-0.12
3340.674	-1.12
3343.682	0.88
3346.688	2.88
3349.691	0.88
3352.692	0.88
3355.691	-2.12
3358.687	2.88
3361.681	0.88
3364.673	4.88
3367.662	-1.12
3370.649	2.88
3373.633	0.88
3376.615	0.88
3379.595	1.88
3382.572	-0.12
3385.547	-0.12
3388.52	0.88
3391.49	2.88
3394.458	1.88
3397.424	-0.12
3400.387	-2.12
3403.348	0.88
3406.307	-0.12
3409.263	-0.12
3412.217	-2.12
3415.168	2.88
3418.118	-2.12
3421.065	2.88
3424.009	-0.12
3426.951	3.88
3429.891	0.88
3432.829	0.88
3435.764	-2.12
3438.697	0.88
3441.628	0.88
3444.557	-0.12
3447.483	0.88
3450.407	-1.12
3453.328	-2.12
3456.247	1.88
3459.164	0.88
3462.079	3.88
3464.991	1.88
3467.902	-1.12
3470.809	-3.12
3473.715	4.88
3476.618	0.88
3479.519	0.88
3482.418	-3.12
3485.315	1.88
3488.209	0.88
3491.101	-1.12
3493.99	0.88
3496.878	4.88
3499.763	2.88
3502.646	2.88
3505.527	0.88
3508.405	2.88
3511.281	2.88
3514.155	-1.12
3517.027	-0.12
3519.897	1.88
3522.764	1.88
3525.629	2.88
3528.492	2.88
3531.352	-0.12
3534.211	-1.12
3537.067	2.88
3539.921	-0.12
3542.773	2.88
3545.622	-1.12
3548.469	-0.12
3551.315	2.88
3554.157	-2.12
3556.998	0.88
3559.837	2.88
3562.673	-2.12
3565.507	-2.12
3568.339	-3.12
3571.169	2.88
3573.996	-1.12
3576.822	1.88
3579.645	-0.12
3582.466	-0.12
3585.285	2.88
3588.101	0.88
3590.916	1.88
3593.728	1.88
3596.538	2.88
3599.346	0.88
3602.152	1.88
3604.956	1.88
3607.757	1.88
3610.556	3.88
3613.354	3.88
3616.149	4.88
3618.942	2.88
3621.732	-1.12
3624.521	0.88
3627.307	-0.12
3630.092	-1.12
3632.874	-1.12
3635.654	-4.12
3638.432	-3.12
3641.208	4.88
3643.982	-0.12
3646.753	0.88
3649.523	-1.12
3652.29	-1.12
3655.055	0.88
3657.818	2.88
3660.579	-3.12
3663.338	-0.12
3666.095	1.88
3668.849	1.88
3671.602	3.88
3674.352	6.88
3677.101	0.88
3679.847	1.88
3682.591	-0.12
3685.333	0.88
3688.073	0.88
3690.811	0.88
3693.547	-6.12
3696.281	-1.12
3699.013	-1.12
3701.742	0.88
3704.47	-1.12
3707.195	-1.12
3709.919	-1.12
3712.64	-0.12
3715.359	-0.12
3718.076	1.88
3720.792	0.88
3723.505	3.88
3726.216	0.88
3728.925	3.88
3731.632	3.88
3734.336	3.88
3737.039	2.88
3739.74	3.88
3742.439	0.88
3745.136	-2.12
3747.83	-0.12
3750.523	-4.12
3753.213	-1.12
3755.902	-7.12
3758.589	-3.12
3761.273	-2.12
3763.956	-2.12
3766.636	-1.12
3769.315	-5.12
3771.991	-0.12
3774.665	2.88
3777.338	0.88
3780.008	3.88
3782.677	3.88
3785.343	0.88
3788.007	1.88
3790.67	2.88
3793.33	-1.12
3795.989	0.88
3798.645	0.88
3801.299	-1.12
3803.952	1.88
3806.602	4.88
3809.251	-7.12
3811.897	-2.12
3814.542	-0.12
3817.184	-4.12
3819.825	-1.12
3822.463	-4.12
3825.1	-0.12
3827.735	-3.12
3830.367	1.88
3832.998	-1.12
3835.627	-1.12
3838.253	2.88
3840.878	0.88
3843.501	2.88
3846.122	2.88
3848.741	-1.12
3851.358	4.88
3853.973	1.88
3856.586	3.88
3859.197	2.88
3861.806	-1.12
3864.414	0.88
3867.019	0.88
3869.622	-0.12
3872.224	-2.12
3874.823	0.88
3877.421	0.88
3880.016	-0.12
3882.61	1.88
3885.202	2.88
3887.792	1.88
3890.38	0.88
3892.966	4.88
3895.55	1.88
3898.132	-0.12
3900.713	-0.12
3903.291	0.88
3905.868	1.88
3908.442	2.88
3911.015	1.88
3913.586	0.88
3916.155	0.88
3918.722	0.88
3921.287	1.88
3923.85	-1.12
3926.411	0.88
3928.971	0.88
3931.528	1.88
3934.084	2.88
3936.638	-2.12
3939.19	2.88
3941.74	1.88
3944.288	2.88
3946.834	0.88
3949.378	3.88
3951.921	2.88
3954.462	-0.12
3957	-0.12
3959.537	0.88
3962.072	2.88
3964.606	-0.12
3967.137	0.88
3969.667	-2.12
3972.194	-1.12
3974.72	2.88
3977.244	-0.12
3979.766	3.88
3982.286	0.88
3984.805	2.88
3987.321	7.88
3989.836	3.88
3992.349	0.88
3994.86	3.88
3997.369	-0.12
3999.877	2.88
4002.382	-0.12
4004.886	-0.12
4007.388	-0.12
4009.888	-1.12
4012.386	-1.12
4014.883	-3.12
4017.377	-3.12
4019.87	-1.12
4022.361	0.88
4024.85	-3.12
4027.338	1.88
4029.823	0.88
4032.307	0.88
4034.789	3.88
4037.269	-1.12
4039.747	0.88
4042.224	4.88
4044.699	2.88
4047.172	0.88
4049.643	2.88
4052.112	0.88
4054.58	2.88
4057.046	-1.12
4059.51	-0.12
4061.972	-2.12
4064.432	-4.12
4066.891	-0.12
4069.348	-2.12
4071.803	-1.12
4074.256	-1.12
4076.708	0.88
4079.158	-0.12
4081.606	2.88
4084.052	0.88
4086.497	0.88
4088.939	-1.12
4091.38	0.88
4093.819	0.88
4096.257	0.88
4098.693	2.88
4101.127	1.88
4103.559	-1.12
4105.989	-3.12
4108.418	-5.12
4110.845	-1.12
4113.27	0.88
4115.694	-3.12
4118.115	1.88
4120.535	2.88
4122.954	3.88
4125.37	3.88
4127.785	2.88
4130.198	2.88
4132.609	0.88
4135.019	-0.12
4137.427	1.88
4139.833	-0.12
4142.237	-3.12
