Data from I0.2_T10s_Bsub_water_1-10^2_2_RamanShift_12-21-30-976.txt Node
Date: Mon Mar 13 12:21:30 IST 2017
User: aro
Spectrometer: QEPB0276
Trigger mode: 0
Integration Time (sec): 1.000000E1
Scans to average: 1
Electric dark correction enabled: true
Nonlinearity correction enabled: false
Boxcar width: 0
XAxis mode: Raman Shifts
Number of Pixels in Spectrum: 1044
>>>>>Begin Spectral Data<<<<<
160.701	-0.12
166.742	2.88
172.777	-2.12
178.805	-1.12
184.826	-2.12
190.841	-0.12
196.849	5.88
202.85	1.88
208.845	8.88
214.833	8.88
220.815	5.88
226.789	3.88
232.758	5.88
238.719	2.88
244.674	4.88
250.623	6.88
256.565	2.88
262.5	3.88
268.429	6.88
274.351	3.88
280.267	4.88
286.176	2.88
292.079	2.88
297.975	1.88
303.865	-0.12
309.748	-0.12
315.625	0.88
321.495	-0.12
327.359	5.88
333.217	1.88
339.068	6.88
344.912	4.88
350.751	3.88
356.583	0.88
362.408	3.88
368.227	6.88
374.04	2.88
379.847	7.88
385.647	1.88
391.44	0.88
397.228	4.88
403.009	1.88
408.784	2.88
414.553	1.88
420.315	-2.12
426.071	-0.12
431.821	-0.12
437.565	-1.12
443.302	0.88
449.033	0.88
454.758	0.88
460.477	3.88
466.189	3.88
471.896	0.88
477.596	5.88
483.29	4.88
488.978	6.88
494.66	4.88
500.335	5.88
506.005	3.88
511.668	3.88
517.325	5.88
522.977	3.88
528.622	-0.12
534.261	1.88
539.894	0.88
545.521	3.88
551.141	-3.12
556.756	3.88
562.365	-6.12
567.968	-0.12
573.565	-1.12
579.155	0.88
584.74	-0.12
590.319	-1.12
595.892	2.88
601.459	1.88
607.02	-0.12
612.575	3.88
618.124	5.88
623.667	1.88
629.204	3.88
634.735	3.88
640.261	1.88
645.781	0.88
651.294	7.88
656.802	-1.12
662.304	1.88
667.8	4.88
673.29	0.88
678.775	0.88
684.254	3.88
689.726	-0.12
695.193	0.88
700.655	2.88
706.11	-1.12
711.56	1.88
717.004	3.88
722.442	2.88
727.874	7.88
733.301	-0.12
738.722	2.88
744.137	7.88
749.547	2.88
754.951	-2.12
760.349	-4.12
765.741	-4.12
771.128	-1.12
776.509	-3.12
781.885	0.88
787.254	0.88
792.618	-0.12
797.977	-2.12
803.33	-2.12
808.677	1.88
814.019	3.88
819.355	3.88
824.686	0.88
830.011	2.88
835.33	1.88
840.644	3.88
845.952	5.88
851.255	3.88
856.552	1.88
861.844	4.88
867.13	5.88
872.41	-1.12
877.686	1.88
882.955	-1.12
888.219	0.88
893.478	1.88
898.731	-3.12
903.979	-2.12
909.221	-1.12
914.458	-5.12
919.69	1.88
924.916	-0.12
930.136	-0.12
935.351	-1.12
940.561	1.88
945.766	3.88
950.965	-0.12
956.158	2.88
961.347	3.88
966.529	7.88
971.707	4.88
976.879	3.88
982.046	0.88
987.208	2.88
992.364	1.88
997.515	-0.12
1002.66	1.88
1007.801	-4.12
1012.936	-3.12
1018.066	-1.12
1023.19	0.88
1028.309	-3.12
1033.423	-3.12
1038.532	-2.12
1043.636	-0.12
1048.734	-3.12
1053.827	-1.12
1058.915	-3.12
1063.998	0.88
1069.075	-0.12
1074.147	-0.12
1079.214	2.88
1084.276	4.88
1089.333	1.88
1094.385	3.88
1099.431	4.88
1104.472	4.88
1109.509	-0.12
1114.54	4.88
1119.565	4.88
1124.586	4.88
1129.602	2.88
1134.613	3.88
1139.618	2.88
1144.619	3.88
1149.614	1.88
1154.604	5.88
1159.589	0.88
1164.57	-2.12
1169.545	-1.12
1174.515	1.88
1179.48	-0.12
1184.44	1.88
1189.395	0.88
1194.345	-2.12
1199.29	-3.12
1204.23	-2.12
1209.165	1.88
1214.095	-0.12
1219.021	-3.12
1223.941	-1.12
1228.856	2.88
1233.766	-3.12
1238.672	4.88
1243.572	4.88
1248.467	4.88
1253.358	6.88
1258.244	3.88
1263.124	0.88
1268	3.88
1272.871	1.88
1277.737	4.88
1282.599	0.88
1287.455	-1.12
1292.306	0.88
1297.153	-5.12
1301.995	-1.12
1306.832	-1.12
1311.664	-1.12
1316.491	-1.12
1321.314	-1.12
1326.132	-1.12
1330.945	0.88
1335.753	-0.12
1340.556	-0.12
1345.354	2.88
1350.148	2.88
1354.937	2.88
1359.722	6.88
1364.501	6.88
1369.276	5.88
1374.046	3.88
1378.811	6.88
1383.572	5.88
1388.327	-1.12
1393.079	2.88
1397.825	4.88
1402.567	1.88
1407.304	1.88
1412.036	0.88
1416.764	-1.12
1421.487	-2.12
1426.205	1.88
1430.919	0.88
1435.628	1.88
1440.333	-3.12
1445.032	-1.12
1449.727	0.88
1454.418	-0.12
1459.104	1.88
1463.785	2.88
1468.462	-0.12
1473.134	5.88
1477.802	0.88
1482.465	4.88
1487.123	2.88
1491.777	5.88
1496.426	3.88
1501.071	3.88
1505.711	-1.12
1510.347	5.88
1514.978	-0.12
1519.604	4.88
1524.226	0.88
1528.844	1.88
1533.457	-0.12
1538.065	-1.12
1542.669	-0.12
1547.269	0.88
1551.864	-4.12
1556.454	-4.12
1561.041	-2.12
1565.622	-2.12
1570.199	4.88
1574.772	-1.12
1579.34	4.88
1583.904	-0.12
1588.464	2.88
1593.019	2.88
1597.569	4.88
1602.115	5.88
1606.657	1.88
1611.195	4.88
1615.728	-0.12
1620.256	-1.12
1624.78	2.88
1629.3	0.88
1633.816	1.88
1638.327	-5.12
1642.834	2.88
1647.336	-3.12
1651.834	-3.12
1656.328	0.88
1660.817	-4.12
1665.302	-2.12
1669.783	-0.12
1674.259	-3.12
1678.732	-1.12
1683.199	0.88
1687.663	3.88
1692.122	4.88
1696.577	2.88
1701.028	3.88
1705.474	0.88
1709.917	1.88
1714.355	4.88
1718.788	4.88
1723.218	1.88
1727.643	2.88
1732.064	-0.12
1736.481	-2.12
1740.893	2.88
1745.301	-0.12
1749.705	-1.12
1754.105	1.88
1758.501	-0.12
1762.893	-2.12
1767.28	-4.12
1771.663	-1.12
1776.042	-2.12
1780.417	-2.12
1784.787	-0.12
1789.154	-3.12
1793.516	-3.12
1797.874	-0.12
1802.228	-0.12
1806.578	7.88
1810.924	1.88
1815.266	0.88
1819.603	2.88
1823.937	5.88
1828.266	5.88
1832.591	-0.12
1836.913	1.88
1841.23	0.88
1845.543	-1.12
1849.852	2.88
1854.156	0.88
1858.457	-8.12
1862.754	2.88
1867.047	-2.12
1871.335	0.88
1875.62	-2.12
1879.9	-2.12
1884.177	-3.12
1888.449	-1.12
1892.718	-0.12
1896.982	1.88
1901.243	0.88
1905.499	1.88
1909.752	2.88
1914	2.88
1918.245	4.88
1922.485	4.88
1926.722	1.88
1930.954	1.88
1935.183	2.88
1939.408	1.88
1943.628	2.88
1947.845	2.88
1952.058	0.88
1956.267	-0.12
1960.472	1.88
1964.673	-2.12
1968.87	-2.12
1973.063	2.88
1977.252	0.88
1981.438	1.88
1985.619	3.88
1989.797	-2.12
1993.971	-0.12
1998.14	1.88
2002.306	-2.12
2006.469	3.88
2010.627	0.88
2014.781	1.88
2018.932	5.88
2023.078	2.88
2027.221	-0.12
2031.36	1.88
2035.495	-1.12
2039.627	1.88
2043.754	-0.12
2047.878	-0.12
2051.998	-0.12
2056.114	-1.12
2060.226	-0.12
2064.334	0.88
2068.439	-2.12
2072.54	-0.12
2076.637	-3.12
2080.73	-0.12
2084.82	-0.12
2088.906	0.88
2092.988	1.88
2097.066	-1.12
2101.14	-2.12
2105.211	7.88
2109.278	-0.12
2113.342	6.88
2117.401	1.88
2121.457	1.88
2125.509	3.88
2129.558	-0.12
2133.602	3.88
2137.643	-0.12
2141.681	2.88
2145.714	0.88
2149.744	-2.12
2153.77	-1.12
2157.793	-0.12
2161.812	-0.12
2165.827	0.88
2169.838	0.88
2173.846	2.88
2177.851	-2.12
2181.851	-1.12
2185.848	-1.12
2189.841	0.88
2193.831	1.88
2197.817	1.88
2201.799	4.88
2205.778	0.88
2209.753	2.88
2213.725	2.88
2217.693	5.88
2221.657	-0.12
2225.618	3.88
2229.575	0.88
2233.529	2.88
2237.479	0.88
2241.425	5.88
2245.368	-1.12
2249.307	0.88
2253.243	-0.12
2257.175	-0.12
2261.104	0.88
2265.029	1.88
2268.95	0.88
2272.868	-4.12
2276.783	-2.12
2280.694	-1.12
2284.601	0.88
2288.505	-2.12
2292.405	0.88
2296.302	-0.12
2300.195	-0.12
2304.085	-3.12
2307.971	3.88
2311.854	-0.12
2315.734	0.88
2319.609	-0.12
2323.482	1.88
2327.351	1.88
2331.216	-0.12
2335.078	2.88
2338.937	0.88
2342.792	6.88
2346.643	-1.12
2350.492	2.88
2354.336	-0.12
2358.178	1.88
2362.015	2.88
2365.85	2.88
2369.681	2.88
2373.508	-1.12
2377.333	-1.12
2381.153	2.88
2384.971	0.88
2388.785	0.88
2392.595	2.88
2396.402	-0.12
2400.206	-1.12
2404.007	-3.12
2407.804	-2.12
2411.597	-0.12
2415.388	-0.12
2419.174	5.88
2422.958	0.88
2426.738	-0.12
2430.515	2.88
2434.289	-0.12
2438.059	2.88
2441.825	2.88
2445.589	4.88
2449.349	0.88
2453.106	1.88
2456.859	3.88
2460.61	4.88
2464.356	1.88
2468.1	2.88
2471.84	-0.12
2475.577	0.88
2479.311	-1.12
2483.041	-1.12
2486.768	0.88
2490.492	0.88
2494.213	-4.12
2497.93	-6.12
2501.644	-1.12
2505.355	1.88
2509.062	-2.12
2512.766	-0.12
2516.467	-0.12
2520.165	1.88
2523.859	4.88
2527.551	2.88
2531.239	4.88
2534.923	8.88
2538.605	3.88
2542.283	1.88
2545.958	1.88
2549.63	2.88
2553.299	2.88
2556.964	-0.12
2560.626	4.88
2564.285	4.88
2567.941	1.88
2571.594	-2.12
2575.243	-3.12
2578.89	-0.12
2582.533	1.88
2586.173	1.88
2589.809	-4.12
2593.443	2.88
2597.073	-0.12
2600.701	1.88
2604.325	-0.12
2607.946	3.88
2611.564	-1.12
2615.178	0.88
2618.79	0.88
2622.398	1.88
2626.004	1.88
2629.606	1.88
2633.205	-2.12
2636.801	2.88
2640.394	-1.12
2643.983	-0.12
2647.57	3.88
2651.153	2.88
2654.734	-1.12
2658.311	0.88
2661.885	0.88
2665.456	-3.12
2669.025	2.88
2672.589	-1.12
2676.151	-0.12
2679.71	-1.12
2683.266	0.88
2686.819	-0.12
2690.368	-1.12
2693.915	-0.12
2697.458	1.88
2700.999	6.88
2704.536	3.88
2708.071	2.88
2711.602	1.88
2715.13	0.88
2718.656	1.88
2722.178	8.88
2725.697	1.88
2729.214	5.88
2732.727	0.88
2736.237	1.88
2739.744	3.88
2743.249	2.88
2746.75	-4.12
2750.248	-2.12
2753.743	-1.12
2757.236	-7.12
2760.725	-0.12
2764.211	-3.12
2767.695	-0.12
2771.175	1.88
2774.652	-3.12
2778.127	-0.12
2781.598	-4.12
2785.067	2.88
2788.532	0.88
2791.995	0.88
2795.455	-0.12
2798.911	0.88
2802.365	-0.12
2805.816	4.88
2809.264	1.88
2812.709	4.88
2816.151	-1.12
2819.59	1.88
2823.026	2.88
2826.46	1.88
2829.89	1.88
2833.318	3.88
2836.742	4.88
2840.164	1.88
2843.583	2.88
2846.999	-0.12
2850.412	0.88
2853.822	-1.12
2857.229	0.88
2860.634	-0.12
2864.035	3.88
2867.434	-4.12
2870.83	3.88
2874.223	1.88
2877.613	-0.12
2881	-3.12
2884.385	-0.12
2887.766	2.88
2891.145	0.88
2894.521	-2.12
2897.894	-1.12
2901.264	0.88
2904.631	1.88
2907.996	1.88
2911.358	2.88
2914.717	-3.12
2918.073	0.88
2921.426	1.88
2924.777	0.88
2928.124	0.88
2931.469	1.88
2934.811	-2.12
2938.15	1.88
2941.487	1.88
2944.821	6.88
2948.152	-0.12
2951.48	4.88
2954.805	0.88
2958.128	2.88
2961.447	5.88
2964.765	-1.12
2968.079	-1.12
2971.39	0.88
2974.699	2.88
2978.005	-4.12
2981.308	-3.12
2984.609	-0.12
2987.907	0.88
2991.202	0.88
2994.494	-2.12
2997.784	1.88
3001.07	0.88
3004.355	1.88
3007.636	0.88
3010.915	2.88
3014.191	1.88
3017.464	6.88
3020.734	2.88
3024.002	-1.12
3027.267	1.88
3030.53	-0.12
3033.789	2.88
3037.046	3.88
3040.301	3.88
3043.552	5.88
3046.801	1.88
3050.048	2.88
3053.291	-1.12
3056.532	0.88
3059.771	-0.12
3063.006	-1.12
3066.239	-0.12
3069.469	1.88
3072.697	-0.12
3075.922	0.88
3079.144	-3.12
3082.364	-0.12
3085.581	1.88
3088.795	-0.12
3092.007	1.88
3095.216	2.88
3098.423	0.88
3101.627	0.88
3104.828	-0.12
3108.026	-1.12
3111.222	2.88
3114.416	-0.12
3117.607	-1.12
3120.795	3.88
3123.98	2.88
3127.163	-1.12
3130.344	3.88
3133.521	4.88
3136.696	0.88
3139.869	-0.12
3143.039	1.88
3146.206	4.88
3149.371	0.88
3152.533	-2.12
3155.693	-0.12
3158.85	0.88
3162.005	1.88
3165.157	2.88
3168.306	-1.12
3171.453	1.88
3174.597	-1.12
3177.739	2.88
3180.878	-4.12
3184.014	5.88
3187.149	-0.12
3190.28	1.88
3193.409	-2.12
3196.536	2.88
3199.659	3.88
3202.781	0.88
3205.9	1.88
3209.016	0.88
3212.13	-2.12
3215.241	1.88
3218.35	0.88
3221.456	1.88
3224.56	-0.12
3227.661	-1.12
3230.76	-1.12
3233.856	0.88
3236.95	-3.12
3240.041	2.88
3243.13	-0.12
3246.216	-3.12
3249.3	0.88
3252.382	-1.12
3255.46	-2.12
3258.537	2.88
3261.611	4.88
3264.682	-0.12
3267.751	5.88
3270.818	4.88
3273.882	2.88
3276.943	2.88
3280.002	2.88
3283.059	0.88
3286.113	2.88
3289.165	1.88
3292.214	-0.12
3295.261	2.88
3298.306	-1.12
3301.348	1.88
3304.387	0.88
3307.425	2.88
3310.459	-3.12
3313.492	-3.12
3316.521	-1.12
3319.549	2.88
3322.574	-0.12
3325.597	1.88
3328.617	1.88
3331.635	2.88
3334.65	-0.12
3337.663	2.88
3340.674	2.88
3343.682	1.88
3346.688	2.88
3349.691	5.88
3352.692	3.88
3355.691	2.88
3358.687	3.88
3361.681	0.88
3364.673	1.88
3367.662	3.88
3370.649	-0.12
3373.633	0.88
3376.615	-8.12
3379.595	6.88
3382.572	-1.12
3385.547	-1.12
3388.52	-1.12
3391.49	-1.12
3394.458	-1.12
3397.424	1.88
3400.387	1.88
3403.348	0.88
3406.307	1.88
3409.263	1.88
3412.217	-1.12
3415.168	2.88
3418.118	3.88
3421.065	3.88
3424.009	0.88
3426.951	1.88
3429.891	-1.12
3432.829	-3.12
3435.764	0.88
3438.697	3.88
3441.628	-3.12
3444.557	0.88
3447.483	-1.12
3450.407	-2.12
3453.328	-2.12
3456.247	2.88
3459.164	-0.12
3462.079	4.88
3464.991	-0.12
3467.902	2.88
3470.809	1.88
3473.715	3.88
3476.618	-0.12
3479.519	2.88
3482.418	1.88
3485.315	6.88
3488.209	-1.12
3491.101	3.88
3493.99	1.88
3496.878	-0.12
3499.763	-0.12
3502.646	-0.12
3505.527	-2.12
3508.405	-2.12
3511.281	0.88
3514.155	-5.12
3517.027	-1.12
3519.897	1.88
3522.764	2.88
3525.629	-0.12
3528.492	-1.12
3531.352	3.88
3534.211	0.88
3537.067	-1.12
3539.921	1.88
3542.773	0.88
3545.622	2.88
3548.469	2.88
3551.315	1.88
3554.157	1.88
3556.998	6.88
3559.837	0.88
3562.673	-3.12
3565.507	-1.12
3568.339	-2.12
3571.169	1.88
3573.996	1.88
3576.822	-6.12
3579.645	0.88
3582.466	-2.12
3585.285	-5.12
3588.101	0.88
3590.916	-2.12
3593.728	-0.12
3596.538	3.88
3599.346	1.88
3602.152	3.88
3604.956	2.88
3607.757	2.88
3610.556	3.88
3613.354	4.88
3616.149	4.88
3618.942	5.88
3621.732	3.88
3624.521	0.88
3627.307	1.88
3630.092	-0.12
3632.874	0.88
3635.654	-3.12
3638.432	-1.12
3641.208	-1.12
3643.982	-3.12
3646.753	-1.12
3649.523	-1.12
3652.29	-1.12
3655.055	-1.12
3657.818	-0.12
3660.579	-0.12
3663.338	-0.12
3666.095	-3.12
3668.849	2.88
3671.602	2.88
3674.352	4.88
3677.101	-0.12
3679.847	4.88
3682.591	0.88
3685.333	2.88
3688.073	1.88
3690.811	-3.12
3693.547	-2.12
3696.281	3.88
3699.013	1.88
3701.742	1.88
3704.47	-0.12
3707.195	0.88
3709.919	3.88
3712.64	-5.12
3715.359	-0.12
3718.076	-4.12
3720.792	-0.12
3723.505	2.88
3726.216	1.88
3728.925	2.88
3731.632	2.88
3734.336	4.88
3737.039	2.88
3739.74	0.88
3742.439	1.88
3745.136	5.88
3747.83	4.88
3750.523	-2.12
3753.213	1.88
3755.902	-1.12
3758.589	-2.12
3761.273	2.88
3763.956	-0.12
3766.636	2.88
3769.315	2.88
3771.991	-0.12
3774.665	-3.12
3777.338	-0.12
3780.008	0.88
3782.677	-2.12
3785.343	0.88
3788.007	-3.12
3790.67	-0.12
3793.33	3.88
3795.989	1.88
3798.645	-2.12
3801.299	3.88
3803.952	1.88
3806.602	1.88
3809.251	0.88
3811.897	-2.12
3814.542	-0.12
3817.184	-2.12
3819.825	2.88
3822.463	1.88
3825.1	4.88
3827.735	-0.12
3830.367	-3.12
3832.998	3.88
3835.627	-3.12
3838.253	0.88
3840.878	1.88
3843.501	4.88
3846.122	2.88
3848.741	3.88
3851.358	3.88
3853.973	-1.12
3856.586	1.88
3859.197	1.88
3861.806	-0.12
3864.414	4.88
3867.019	-0.12
3869.622	-2.12
3872.224	-5.12
3874.823	-3.12
3877.421	-4.12
3880.016	-5.12
3882.61	-2.12
3885.202	-0.12
3887.792	-2.12
3890.38	-0.12
3892.966	-2.12
3895.55	-2.12
3898.132	-0.12
3900.713	2.88
3903.291	1.88
3905.868	4.88
3908.442	3.88
3911.015	6.88
3913.586	3.88
3916.155	-0.12
3918.722	0.88
3921.287	1.88
3923.85	0.88
3926.411	6.88
3928.971	-2.12
3931.528	0.88
3934.084	-1.12
3936.638	0.88
3939.19	-3.12
3941.74	-1.12
3944.288	0.88
3946.834	-3.12
3949.378	1.88
3951.921	-3.12
3954.462	3.88
3957	4.88
3959.537	0.88
3962.072	2.88
3964.606	-2.12
3967.137	2.88
3969.667	2.88
3972.194	2.88
3974.72	3.88
3977.244	1.88
3979.766	-0.12
3982.286	0.88
3984.805	3.88
3987.321	-1.12
3989.836	0.88
3992.349	2.88
3994.86	-1.12
3997.369	-2.12
3999.877	-1.12
4002.382	-1.12
4004.886	1.88
4007.388	-5.12
4009.888	-3.12
4012.386	-1.12
4014.883	0.88
4017.377	-2.12
4019.87	1.88
4022.361	1.88
4024.85	1.88
4027.338	-0.12
4029.823	-0.12
4032.307	-0.12
4034.789	1.88
4037.269	-3.12
4039.747	1.88
4042.224	-1.12
4044.699	3.88
4047.172	6.88
4049.643	3.88
4052.112	3.88
4054.58	3.88
4057.046	-0.12
4059.51	-3.12
4061.972	1.88
4064.432	0.88
4066.891	2.88
4069.348	2.88
4071.803	-2.12
4074.256	-1.12
4076.708	-4.12
4079.158	-6.12
4081.606	-1.12
4084.052	1.88
4086.497	-2.12
4088.939	-1.12
4091.38	0.88
4093.819	2.88
4096.257	3.88
4098.693	-0.12
4101.127	2.88
4103.559	0.88
4105.989	4.88
4108.418	1.88
4110.845	1.88
4113.27	2.88
4115.694	-1.12
4118.115	0.88
4120.535	1.88
4122.954	4.88
4125.37	1.88
4127.785	5.88
4130.198	0.88
4132.609	-0.12
4135.019	-0.12
4137.427	1.88
4139.833	1.88
4142.237	-3.12
