Data from I0.5_T15s_Bsub_water_1-10^4_2_RamanShift_1.txt Node
Date: Mon Mar 13 14:21:02 IST 2017
User: aro
Spectrometer: QEPB0276
Trigger mode: 0
Integration Time (sec): 1.500000E1
Scans to average: 1
Electric dark correction enabled: true
Nonlinearity correction enabled: false
Boxcar width: 0
XAxis mode: Raman Shifts
Number of Pixels in Spectrum: 1044
>>>>>Begin Spectral Data<<<<<
160.701	-32.88
166.742	3.12
172.777	109.12
178.805	442.12
184.826	1271.12
190.841	2732.12
196.849	4347.12
202.85	5439.12
208.845	5739.12
214.833	5583.12
220.815	5375.12
226.789	5276.12
232.758	5223.12
238.719	5064.12
244.674	4838.12
250.623	4518.12
256.565	4251.12
262.5	4007.12
268.429	3893.12
274.351	4017.12
280.267	4146.12
286.176	4067.12
292.079	3988.12
297.975	3902.12
303.865	3802.12
309.748	3701.12
315.625	3610.12
321.495	3543.12
327.359	3493.12
333.217	3437.12
339.068	3433.12
344.912	3387.12
350.751	3367.12
356.583	3346.12
362.408	3313.12
368.227	3302.12
374.04	3274.12
379.847	3262.12
385.647	3235.12
391.44	3023.12
397.228	2719.12
403.009	2416.12
408.784	2105.12
414.553	1522.12
420.315	959.12
426.071	1651.12
431.821	2830.12
437.565	3227.12
443.302	3279.12
449.033	3273.12
454.758	3277.12
460.477	3270.12
466.189	3237.12
471.896	3225.12
477.596	3212.12
483.29	3222.12
488.978	3190.12
494.66	3203.12
500.335	3154.12
506.005	3121.12
511.668	3070.12
517.325	3030.12
522.977	2995.12
528.622	2979.12
534.261	2950.12
539.894	2928.12
545.521	2923.12
551.141	2908.12
556.756	2900.12
562.365	2876.12
567.968	2871.12
573.565	2847.12
579.155	2860.12
584.74	2854.12
590.319	2849.12
595.892	2821.12
601.459	2829.12
607.02	2792.12
612.575	2773.12
618.124	2745.12
623.667	2712.12
629.204	2648.12
634.735	2509.12
640.261	2347.12
645.781	2362.12
651.294	2496.12
656.802	2666.12
662.304	2671.12
667.8	2660.12
673.29	2665.12
678.775	2647.12
684.254	2661.12
689.726	2644.12
695.193	2652.12
700.655	2618.12
706.11	2628.12
711.56	2606.12
717.004	2599.12
722.442	2581.12
727.874	2598.12
733.301	2573.12
738.722	2578.12
744.137	2559.12
749.547	2550.12
754.951	2569.12
760.349	2569.12
765.741	2559.12
771.128	2579.12
776.509	2575.12
781.885	2591.12
787.254	2581.12
792.618	2570.12
797.977	2565.12
803.33	2533.12
808.677	2534.12
814.019	2512.12
819.355	2476.12
824.686	2471.12
830.011	2444.12
835.33	2375.12
840.644	2140.12
845.952	1745.12
851.255	1635.12
856.552	1954.12
861.844	2095.12
867.13	1566.12
872.41	1067.12
877.686	1470.12
882.955	2156.12
888.219	2394.12
893.478	2371.12
898.731	2343.12
903.979	2354.12
909.221	2345.12
914.458	2334.12
919.69	2333.12
924.916	2334.12
930.136	2353.12
935.351	2353.12
940.561	2366.12
945.766	2359.12
950.965	2357.12
956.158	2326.12
961.347	2298.12
966.529	2295.12
971.707	2261.12
976.879	2252.12
982.046	2238.12
987.208	2205.12
992.364	2199.12
997.515	2147.12
1002.66	1961.12
1007.801	1861.12
1012.936	2031.12
1018.066	2270.12
1023.19	2325.12
1028.309	2351.12
1033.423	2381.12
1038.532	2361.12
1043.636	2346.12
1048.734	2314.12
1053.827	2303.12
1058.915	2299.12
1063.998	2279.12
1069.075	2281.12
1074.147	2280.12
1079.214	2298.12
1084.276	2323.12
1089.333	2356.12
1094.385	2357.12
1099.431	2375.12
1104.472	2393.12
1109.509	2371.12
1114.54	2359.12
1119.565	2308.12
1124.586	2297.12
1129.602	2269.12
1134.613	2251.12
1139.618	2248.12
1144.619	2261.12
1149.614	2255.12
1154.604	2254.12
1159.589	2279.12
1164.57	2302.12
1169.545	2308.12
1174.515	2332.12
1179.48	2332.12
1184.44	2309.12
1189.395	2302.12
1194.345	2299.12
1199.29	2252.12
1204.23	2182.12
1209.165	2217.12
1214.095	2288.12
1219.021	2338.12
1223.941	2360.12
1228.856	2373.12
1233.766	2404.12
1238.672	2392.12
1243.572	2393.12
1248.467	2379.12
1253.358	2370.12
1258.244	2322.12
1263.124	2316.12
1268	2240.12
1272.871	2216.12
1277.737	2251.12
1282.599	2230.12
1287.455	2257.12
1292.306	2248.12
1297.153	2293.12
1301.995	2311.12
1306.832	2314.12
1311.664	2316.12
1316.491	2334.12
1321.314	2339.12
1326.132	2302.12
1330.945	2258.12
1335.753	2246.12
1340.556	2212.12
1345.354	2160.12
1350.148	2139.12
1354.937	2141.12
1359.722	2157.12
1364.501	2166.12
1369.276	2201.12
1374.046	2230.12
1378.811	2251.12
1383.572	2235.12
1388.327	2243.12
1393.079	2204.12
1397.825	2168.12
1402.567	2160.12
1407.304	2120.12
1412.036	2116.12
1416.764	2106.12
1421.487	2110.12
1426.205	2105.12
1430.919	2126.12
1435.628	2129.12
1440.333	2172.12
1445.032	2203.12
1449.727	2205.12
1454.418	2209.12
1459.104	2205.12
1463.785	2179.12
1468.462	2171.12
1473.134	2138.12
1477.802	2152.12
1482.465	2129.12
1487.123	2123.12
1491.777	2127.12
1496.426	2141.12
1501.071	2172.12
1505.711	2197.12
1510.347	2214.12
1514.978	2240.12
1519.604	2253.12
1524.226	2277.12
1528.844	2275.12
1533.457	2287.12
1538.065	2285.12
1542.669	2279.12
1547.269	2256.12
1551.864	2269.12
1556.454	2255.12
1561.041	2257.12
1565.622	2268.12
1570.199	2279.12
1574.772	2300.12
1579.34	2326.12
1583.904	2350.12
1588.464	2372.12
1593.019	2403.12
1597.569	2408.12
1602.115	2399.12
1606.657	2403.12
1611.195	2401.12
1615.728	2407.12
1620.256	2392.12
1624.78	2390.12
1629.3	2435.12
1633.816	2459.12
1638.327	2462.12
1642.834	2502.12
1647.336	2509.12
1651.834	2539.12
1656.328	2510.12
1660.817	2535.12
1665.302	2502.12
1669.783	2453.12
1674.259	2444.12
1678.732	2400.12
1683.199	2329.12
1687.663	2239.12
1692.122	2178.12
1696.577	2143.12
1701.028	2153.12
1705.474	2131.12
1709.917	2102.12
1714.355	2098.12
1718.788	2076.12
1723.218	2033.12
1727.643	2012.12
1732.064	1980.12
1736.481	1956.12
1740.893	1910.12
1745.301	1869.12
1749.705	1852.12
1754.105	1782.12
1758.501	1768.12
1762.893	1699.12
1767.28	1645.12
1771.663	1497.12
1776.042	639.12
1780.417	-343.88
1784.787	141.12
1789.154	1354.12
1793.516	1683.12
1797.874	1763.12
1802.228	1801.12
1806.578	1776.12
1810.924	1803.12
1815.266	1793.12
1819.603	1771.12
1823.937	1733.12
1828.266	1720.12
1832.591	1719.12
1836.913	1700.12
1841.23	1694.12
1845.543	1669.12
1849.852	1685.12
1854.156	1680.12
1858.457	1680.12
1862.754	1699.12
1867.047	1698.12
1871.335	1708.12
1875.62	1696.12
1879.9	1688.12
1884.177	1699.12
1888.449	1689.12
1892.718	1645.12
1896.982	1435.12
1901.243	1214.12
1905.499	1317.12
1909.752	1585.12
1914	1662.12
1918.245	1656.12
1922.485	1656.12
1926.722	1667.12
1930.954	1716.12
1935.183	1714.12
1939.408	1712.12
1943.628	1737.12
1947.845	1735.12
1952.058	1738.12
1956.267	1731.12
1960.472	1730.12
1964.673	1699.12
1968.87	1703.12
1973.063	1682.12
1977.252	1654.12
1981.438	1668.12
1985.619	1627.12
1989.797	1637.12
1993.971	1633.12
1998.14	1649.12
2002.306	1648.12
2006.469	1662.12
2010.627	1649.12
2014.781	1675.12
2018.932	1650.12
2023.078	1657.12
2027.221	1655.12
2031.36	1630.12
2035.495	1603.12
2039.627	1595.12
2043.754	1576.12
2047.878	1549.12
2051.998	1533.12
2056.114	1555.12
2060.226	1574.12
2064.334	1586.12
2068.439	1603.12
2072.54	1597.12
2076.637	1625.12
2080.73	1630.12
2084.82	1640.12
2088.906	1631.12
2092.988	1613.12
2097.066	1603.12
2101.14	1589.12
2105.211	1593.12
2109.278	1590.12
2113.342	1578.12
2117.401	1573.12
2121.457	1576.12
2125.509	1592.12
2129.558	1542.12
2133.602	1558.12
2137.643	1552.12
2141.681	1541.12
2145.714	1548.12
2149.744	1546.12
2153.77	1534.12
2157.793	1532.12
2161.812	1516.12
2165.827	1486.12
2169.838	1479.12
2173.846	1464.12
2177.851	1440.12
2181.851	1442.12
2185.848	1388.12
2189.841	1408.12
2193.831	1385.12
2197.817	1379.12
2201.799	1394.12
2205.778	1386.12
2209.753	1383.12
2213.725	1360.12
2217.693	1380.12
2221.657	1386.12
2225.618	1388.12
2229.575	1375.12
2233.529	1400.12
2237.479	1373.12
2241.425	1359.12
2245.368	1327.12
2249.307	1319.12
2253.243	1328.12
2257.175	1303.12
2261.104	1293.12
2265.029	1300.12
2268.95	1258.12
2272.868	1263.12
2276.783	1251.12
2280.694	1241.12
2284.601	1235.12
2288.505	1227.12
2292.405	1226.12
2296.302	1207.12
2300.195	1174.12
2304.085	1174.12
2307.971	1149.12
2311.854	1153.12
2315.734	1134.12
2319.609	1111.12
2323.482	1106.12
2327.351	1108.12
2331.216	1096.12
2335.078	1078.12
2338.937	1060.12
2342.792	1064.12
2346.643	1061.12
2350.492	1066.12
2354.336	1064.12
2358.178	1056.12
2362.015	1060.12
2365.85	1052.12
2369.681	1052.12
2373.508	1047.12
2377.333	1040.12
2381.153	978.12
2384.971	746.12
2388.785	696.12
2392.595	873.12
2396.402	996.12
2400.206	1009.12
2404.007	1014.12
2407.804	1024.12
2411.597	1016.12
2415.388	1001.12
2419.174	1016.12
2422.958	1019.12
2426.738	1005.12
2430.515	1016.12
2434.289	1011.12
2438.059	995.12
2441.825	1016.12
2445.589	1000.12
2449.349	983.12
2453.106	974.12
2456.859	973.12
2460.61	956.12
2464.356	973.12
2468.1	957.12
2471.84	948.12
2475.577	929.12
2479.311	942.12
2483.041	923.12
2486.768	942.12
2490.492	937.12
2494.213	952.12
2497.93	962.12
2501.644	956.12
2505.355	941.12
2509.062	928.12
2512.766	942.12
2516.467	909.12
2520.165	860.12
2523.859	866.12
2527.551	905.12
2531.239	904.12
2534.923	909.12
2538.605	900.12
2542.283	890.12
2545.958	896.12
2549.63	874.12
2553.299	888.12
2556.964	885.12
2560.626	879.12
2564.285	889.12
2567.941	875.12
2571.594	878.12
2575.243	868.12
2578.89	855.12
2582.533	850.12
2586.173	853.12
2589.809	854.12
2593.443	832.12
2597.073	845.12
2600.701	836.12
2604.325	809.12
2607.946	822.12
2611.564	820.12
2615.178	816.12
2618.79	822.12
2622.398	823.12
2626.004	821.12
2629.606	805.12
2633.205	811.12
2636.801	809.12
2640.394	794.12
2643.983	791.12
2647.57	783.12
2651.153	768.12
2654.734	763.12
2658.311	745.12
2661.885	740.12
2665.456	740.12
2669.025	736.12
2672.589	723.12
2676.151	714.12
2679.71	710.12
2683.266	703.12
2686.819	713.12
2690.368	700.12
2693.915	677.12
2697.458	672.12
2700.999	664.12
2704.536	665.12
2708.071	641.12
2711.602	633.12
2715.13	631.12
2718.656	632.12
2722.178	617.12
2725.697	632.12
2729.214	614.12
2732.727	632.12
2736.237	619.12
2739.744	624.12
2743.249	626.12
2746.75	638.12
2750.248	641.12
2753.743	644.12
2757.236	638.12
2760.725	630.12
2764.211	626.12
2767.695	630.12
2771.175	631.12
2774.652	614.12
2778.127	614.12
2781.598	621.12
2785.067	603.12
2788.532	586.12
2791.995	585.12
2795.455	572.12
2798.911	556.12
2802.365	545.12
2805.816	558.12
2809.264	555.12
2812.709	546.12
2816.151	534.12
2819.59	531.12
2823.026	529.12
2826.46	516.12
2829.89	493.12
2833.318	484.12
2836.742	480.12
2840.164	458.12
2843.583	443.12
2846.999	415.12
2850.412	387.12
2853.822	354.12
2857.229	316.12
2860.634	262.12
2864.035	179.12
2867.434	77.12
2870.83	-128.88
2874.223	-901.88
2877.613	-2636.88
2881	-2896.88
2884.385	-1291.88
2887.766	-230.88
2891.145	20.12
2894.521	160.12
2897.894	245.12
2901.264	301.12
2904.631	340.12
2907.996	376.12
2911.358	399.12
2914.717	424.12
2918.073	437.12
2921.426	465.12
2924.777	473.12
2928.124	467.12
2931.469	484.12
2934.811	485.12
2938.15	497.12
2941.487	489.12
2944.821	480.12
2948.152	460.12
2951.48	459.12
2954.805	487.12
2958.128	489.12
2961.447	494.12
2964.765	520.12
2968.079	526.12
2971.39	554.12
2974.699	559.12
2978.005	570.12
2981.308	569.12
2984.609	575.12
2987.907	583.12
2991.202	585.12
2994.494	592.12
2997.784	562.12
3001.07	559.12
3004.355	560.12
3007.636	557.12
3010.915	570.12
3014.191	590.12
3017.464	632.12
3020.734	656.12
3024.002	669.12
3027.267	690.12
3030.53	703.12
3033.789	711.12
3037.046	724.12
3040.301	727.12
3043.552	746.12
3046.801	751.12
3050.048	744.12
3053.291	771.12
3056.532	788.12
3059.771	784.12
3063.006	779.12
3066.239	800.12
3069.469	800.12
3072.697	803.12
3075.922	830.12
3079.144	864.12
3082.364	907.12
3085.581	929.12
3088.795	954.12
3092.007	988.12
3095.216	999.12
3098.423	1030.12
3101.627	1033.12
3104.828	1058.12
3108.026	1076.12
3111.222	1087.12
3114.416	1104.12
3117.607	1106.12
3120.795	1125.12
3123.98	1137.12
3127.163	1132.12
3130.344	1148.12
3133.521	1184.12
3136.696	1204.12
3139.869	1239.12
3143.039	1248.12
3146.206	1300.12
3149.371	1297.12
3152.533	1324.12
3155.693	1322.12
3158.85	1340.12
3162.005	1353.12
3165.157	1351.12
3168.306	1339.12
3171.453	1347.12
3174.597	1327.12
3177.739	1299.12
3180.878	1292.12
3184.014	1265.12
3187.149	1258.12
3190.28	1262.12
3193.409	1252.12
3196.536	1287.12
3199.659	1312.12
3202.781	1321.12
3205.9	1327.12
3209.016	1373.12
3212.13	1347.12
3215.241	1353.12
3218.35	1355.12
3221.456	1323.12
3224.56	1315.12
3227.661	1311.12
3230.76	1286.12
3233.856	1289.12
3236.95	1230.12
3240.041	1223.12
3243.13	1191.12
3246.216	1183.12
3249.3	1176.12
3252.382	1186.12
3255.46	1187.12
3258.537	1203.12
3261.611	1212.12
3264.682	1224.12
3267.751	1224.12
3270.818	1226.12
3273.882	1223.12
3276.943	1214.12
3280.002	1205.12
3283.059	1201.12
3286.113	1168.12
3289.165	1157.12
3292.214	1127.12
3295.261	1112.12
3298.306	1070.12
3301.348	1048.12
3304.387	1024.12
3307.425	1001.12
3310.459	977.12
3313.492	969.12
3316.521	960.12
3319.549	961.12
3322.574	954.12
3325.597	961.12
3328.617	956.12
3331.635	948.12
3334.65	942.12
3337.663	938.12
3340.674	928.12
3343.682	918.12
3346.688	919.12
3349.691	903.12
3352.692	873.12
3355.691	845.12
3358.687	805.12
3361.681	779.12
3364.673	766.12
3367.662	739.12
3370.649	720.12
3373.633	755.12
3376.615	779.12
3379.595	793.12
3382.572	799.12
3385.547	791.12
3388.52	801.12
3391.49	782.12
3394.458	781.12
3397.424	761.12
3400.387	758.12
3403.348	745.12
3406.307	721.12
3409.263	712.12
3412.217	673.12
3415.168	653.12
3418.118	635.12
3421.065	608.12
3424.009	553.12
3426.951	516.12
3429.891	513.12
3432.829	490.12
3435.764	495.12
3438.697	488.12
3441.628	491.12
3444.557	489.12
3447.483	486.12
3450.407	472.12
3453.328	463.12
3456.247	450.12
3459.164	432.12
3462.079	390.12
3464.991	353.12
3467.902	300.12
3470.809	213.12
3473.715	92.12
3476.618	-42.88
3479.519	-257.88
3482.418	-475.88
3485.315	-653.88
3488.209	-822.88
3491.101	-876.88
3493.99	-847.88
3496.878	-803.88
3499.763	-756.88
3502.646	-800.88
3505.527	-860.88
3508.405	-929.88
3511.281	-890.88
3514.155	-801.88
3517.027	-727.88
3519.897	-666.88
3522.764	-639.88
3525.629	-636.88
3528.492	-677.88
3531.352	-748.88
3534.211	-906.88
3537.067	-1081.88
3539.921	-1248.88
3542.773	-1386.88
3545.622	-1449.88
3548.469	-1393.88
3551.315	-1259.88
3554.157	-1084.88
3556.998	-904.88
3559.837	-741.88
3562.673	-611.88
3565.507	-512.88
3568.339	-421.88
3571.169	-382.88
3573.996	-369.88
3576.822	-375.88
3579.645	-518.88
3582.466	-1155.88
3585.285	-1769.88
3588.101	-1739.88
3590.916	-1154.88
3593.728	-820.88
3596.538	-818.88
3599.346	-887.88
3602.152	-980.88
3604.956	-1037.88
3607.757	-1040.88
3610.556	-1012.88
3613.354	-956.88
3616.149	-875.88
3618.942	-784.88
3621.732	-705.88
3624.521	-647.88
3627.307	-581.88
3630.092	-540.88
3632.874	-510.88
3635.654	-483.88
3638.432	-469.88
3641.208	-479.88
3643.982	-492.88
3646.753	-534.88
3649.523	-583.88
3652.29	-617.88
3655.055	-645.88
3657.818	-664.88
3660.579	-669.88
3663.338	-638.88
3666.095	-603.88
3668.849	-540.88
3671.602	-475.88
3674.352	-405.88
3677.101	-347.88
3679.847	-300.88
3682.591	-269.88
3685.333	-225.88
3688.073	-206.88
3690.811	-187.88
3693.547	-184.88
3696.281	-175.88
3699.013	-173.88
3701.742	-165.88
3704.47	-169.88
3707.195	-171.88
3709.919	-168.88
3712.64	-175.88
3715.359	-173.88
3718.076	-170.88
3720.792	-167.88
3723.505	-165.88
3726.216	-156.88
3728.925	-151.88
3731.632	-146.88
3734.336	-140.88
3737.039	-127.88
3739.74	-129.88
3742.439	-129.88
3745.136	-128.88
3747.83	-121.88
3750.523	-126.88
3753.213	-120.88
3755.902	-122.88
3758.589	-124.88
3761.273	-127.88
3763.956	-127.88
3766.636	-140.88
3769.315	-138.88
3771.991	-148.88
3774.665	-149.88
3777.338	-160.88
3780.008	-158.88
3782.677	-160.88
3785.343	-163.88
3788.007	-165.88
3790.67	-158.88
3793.33	-161.88
3795.989	-154.88
3798.645	-151.88
3801.299	-149.88
3803.952	-144.88
3806.602	-145.88
3809.251	-138.88
3811.897	-141.88
3814.542	-138.88
3817.184	-137.88
3819.825	-135.88
3822.463	-136.88
3825.1	-136.88
3827.735	-132.88
3830.367	-138.88
3832.998	-136.88
3835.627	-134.88
3838.253	-130.88
3840.878	-137.88
3843.501	-134.88
3846.122	-132.88
3848.741	-129.88
3851.358	-133.88
3853.973	-134.88
3856.586	-135.88
3859.197	-129.88
3861.806	-133.88
3864.414	-131.88
3867.019	-131.88
3869.622	-128.88
3872.224	-133.88
3874.823	-133.88
3877.421	-128.88
3880.016	-134.88
3882.61	-135.88
3885.202	-135.88
3887.792	-137.88
3890.38	-138.88
3892.966	-140.88
3895.55	-138.88
3898.132	-132.88
3900.713	-134.88
3903.291	-136.88
3905.868	-137.88
3908.442	-130.88
3911.015	-132.88
3913.586	-132.88
3916.155	-125.88
3918.722	-124.88
3921.287	-126.88
3923.85	-136.88
3926.411	-132.88
3928.971	-128.88
3931.528	-133.88
3934.084	-133.88
3936.638	-134.88
3939.19	-135.88
3941.74	-136.88
3944.288	-137.88
3946.834	-139.88
3949.378	-136.88
3951.921	-142.88
3954.462	-139.88
3957	-140.88
3959.537	-133.88
3962.072	-135.88
3964.606	-136.88
3967.137	-137.88
3969.667	-134.88
3972.194	-130.88
3974.72	-129.88
3977.244	-129.88
3979.766	-126.88
3982.286	-124.88
3984.805	-127.88
3987.321	-120.88
3989.836	-125.88
3992.349	-127.88
3994.86	-127.88
3997.369	-125.88
3999.877	-124.88
4002.382	-130.88
4004.886	-129.88
4007.388	-124.88
4009.888	-129.88
4012.386	-126.88
4014.883	-126.88
4017.377	-127.88
4019.87	-127.88
4022.361	-128.88
4024.85	-127.88
4027.338	-120.88
4029.823	-123.88
4032.307	-125.88
4034.789	-126.88
4037.269	-127.88
4039.747	-124.88
4042.224	-126.88
4044.699	-132.88
4047.172	-124.88
4049.643	-128.88
4052.112	-129.88
4054.58	-139.88
4057.046	-132.88
4059.51	-134.88
4061.972	-135.88
4064.432	-132.88
4066.891	-134.88
4069.348	-144.88
4071.803	-156.88
4074.256	-236.88
4076.708	-352.88
4079.158	-356.88
4081.606	-260.88
4084.052	-195.88
4086.497	-164.88
4088.939	-147.88
4091.38	-144.88
4093.819	-142.88
4096.257	-133.88
4098.693	-131.88
4101.127	-130.88
4103.559	-128.88
4105.989	-83.88
4108.418	-73.88
4110.845	-75.88
4113.27	-70.88
4115.694	-63.88
4118.115	-52.88
4120.535	-134.88
4122.954	-137.88
4125.37	-137.88
4127.785	-146.88
4130.198	-193.88
4132.609	-243.88
4135.019	-129.88
4137.427	-129.88
4139.833	-130.88
4142.237	-130.88
