Data from 2018-2-8_conc=0_RamanShift_16.txt Node
Date: Wed Feb 07 09:33:40 IST 2018
User: aro
Spectrometer: QEPB0276
Trigger mode: 0
Integration Time (sec): 3.000000E1
Scans to average: 1
Electric dark correction enabled: true
Nonlinearity correction enabled: false
Boxcar width: 0
XAxis mode: Raman Shifts
Number of Pixels in Spectrum: 1044
>>>>>Begin Spectral Data<<<<<
160.701	247.9
166.742	457.9
172.777	897.9
178.805	2434.9
184.826	5884.9
190.841	11853.9
196.849	18937.9
202.85	23971.9
208.845	25932.9
214.833	25683.9
220.815	25221.9
226.789	25093.9
232.758	24954.9
238.719	24856.9
244.674	24589.9
250.623	24095.9
256.565	23640.9
262.5	23243.9
268.429	22624.9
274.351	22263.9
280.267	22228.9
286.176	21554.9
292.079	21278.9
297.975	20969.9
303.865	20748.9
309.748	20630.9
315.625	20496.9
321.495	20145.9
327.359	19992.9
333.217	20033.9
339.068	20047.9
344.912	20023.9
350.751	19951.9
356.583	19975.9
362.408	19949.9
368.227	19932.9
374.04	20128.9
379.847	20145.9
385.647	20151.9
391.44	20353.9
397.228	20397.9
403.009	20662.9
408.784	20726.9
414.553	20843.9
420.315	20927.9
426.071	21005.9
431.821	20936.9
437.565	20948.9
443.302	20695.9
449.033	20730.9
454.758	20545.9
460.477	20449.9
466.189	20356.9
471.896	20313.9
477.596	20193.9
483.29	20233.9
488.978	20218.9
494.66	20202.9
500.335	20068.9
506.005	20019.9
511.668	19827.9
517.325	19731.9
522.977	19513.9
528.622	19468.9
534.261	19338.9
539.894	19325.9
545.521	19113.9
551.141	19136.9
556.756	18841.9
562.365	18812.9
567.968	18654.9
573.565	18524.9
579.155	18311.9
584.74	18329.9
590.319	18110.9
595.892	18211.9
601.459	18181.9
607.02	18126.9
612.575	18177.9
618.124	18032.9
623.667	18114.9
629.204	18096.9
634.735	18048.9
640.261	17978.9
645.781	18052.9
651.294	17812.9
656.802	17628.9
662.304	17508.9
667.8	17295.9
673.29	17271.9
678.775	17196.9
684.254	17156.9
689.726	17222.9
695.193	17028.9
700.655	17113.9
706.11	17337.9
711.56	17069.9
717.004	17197.9
722.442	17231.9
727.874	17112.9
733.301	17150.9
738.722	17208.9
744.137	16916.9
749.547	16903.9
754.951	16897.9
760.349	16681.9
765.741	16538.9
771.128	16594.9
776.509	16559.9
781.885	16512.9
787.254	16564.9
792.618	16541.9
797.977	16634.9
803.33	16602.9
808.677	16723.9
814.019	16670.9
819.355	16677.9
824.686	16734.9
830.011	16620.9
835.33	16398.9
840.644	16228.9
845.952	16277.9
851.255	16035.9
856.552	15999.9
861.844	15764.9
867.13	15811.9
872.41	15764.9
877.686	15674.9
882.955	15816.9
888.219	15894.9
893.478	15981.9
898.731	15848.9
903.979	15783.9
909.221	15765.9
914.458	15683.9
919.69	15585.9
924.916	15413.9
930.136	15152.9
935.351	15140.9
940.561	14848.9
945.766	14777.9
950.965	14618.9
956.158	14754.9
961.347	14754.9
966.529	14769.9
971.707	14876.9
976.879	14767.9
982.046	14852.9
987.208	14798.9
992.364	14670.9
997.515	14650.9
1002.66	14529.9
1007.801	14565.9
1012.936	14519.9
1018.066	14497.9
1023.19	14376.9
1028.309	14282.9
1033.423	14400.9
1038.532	14478.9
1043.636	14658.9
1048.734	14591.9
1053.827	14726.9
1058.915	14709.9
1063.998	14550.9
1069.075	14406.9
1074.147	14180.9
1079.214	14173.9
1084.276	13901.9
1089.333	13923.9
1094.385	13802.9
1099.431	13904.9
1104.472	13773.9
1109.509	13993.9
1114.54	14044.9
1119.565	14070.9
1124.586	14062.9
1129.602	14095.9
1134.613	13989.9
1139.618	13885.9
1144.619	13741.9
1149.614	13536.9
1154.604	13410.9
1159.589	13341.9
1164.57	13179.9
1169.545	13160.9
1174.515	13205.9
1179.48	13263.9
1184.44	13388.9
1189.395	13496.9
1194.345	13586.9
1199.29	13545.9
1204.23	13632.9
1209.165	13556.9
1214.095	13538.9
1219.021	13342.9
1223.941	13397.9
1228.856	13320.9
1233.766	13209.9
1238.672	13208.9
1243.572	13103.9
1248.467	13147.9
1253.358	13276.9
1258.244	13312.9
1263.124	13250.9
1268	13049.9
1272.871	13061.9
1277.737	13071.9
1282.599	12765.9
1287.455	12671.9
1292.306	12453.9
1297.153	12507.9
1301.995	12330.9
1306.832	12309.9
1311.664	12286.9
1316.491	12427.9
1321.314	12345.9
1326.132	12343.9
1330.945	12315.9
1335.753	12129.9
1340.556	12001.9
1345.354	11837.9
1350.148	11611.9
1354.937	11404.9
1359.722	11329.9
1364.501	11099.9
1369.276	11062.9
1374.046	11025.9
1378.811	11109.9
1383.572	11172.9
1388.327	10960.9
1393.079	11443.9
1397.825	11528.9
1402.567	11532.9
1407.304	11457.9
1412.036	11494.9
1416.764	11427.9
1421.487	11525.9
1426.205	11259.9
1430.919	11088.9
1435.628	10904.9
1440.333	10869.9
1445.032	10758.9
1449.727	10821.9
1454.418	10812.9
1459.104	10766.9
1463.785	10556.9
1468.462	10653.9
1473.134	10506.9
1477.802	10422.9
1482.465	10456.9
1487.123	10150.9
1491.777	10175.9
1496.426	10059.9
1501.071	9914.9
1505.711	9863.9
1510.347	9847.9
1514.978	10076.9
1519.604	10146.9
1524.226	10247.9
1528.844	10523.9
1533.457	10456.9
1538.065	10548.9
1542.669	10560.9
1547.269	10701.9
1551.864	10701.9
1556.454	10722.9
1561.041	10640.9
1565.622	10676.9
1570.199	10382.9
1574.772	10318.9
1579.34	10163.9
1583.904	10325.9
1588.464	10299.9
1593.019	10319.9
1597.569	10403.9
1602.115	10491.9
1606.657	10568.9
1611.195	10615.9
1615.728	10645.9
1620.256	10687.9
1624.78	10699.9
1629.3	10733.9
1633.816	10525.9
1638.327	10468.9
1642.834	10432.9
1647.336	10416.9
1651.834	10320.9
1656.328	10390.9
1660.817	10272.9
1665.302	10300.9
1669.783	10308.9
1674.259	10177.9
1678.732	9913.9
1683.199	9634.9
1687.663	9475.9
1692.122	9130.9
1696.577	8883.9
1701.028	8899.9
1705.474	8730.9
1709.917	8698.9
1714.355	8680.9
1718.788	8627.9
1723.218	8428.9
1727.643	8199.9
1732.064	8197.9
1736.481	8111.9
1740.893	7899.9
1745.301	7807.9
1749.705	7865.9
1754.105	7482.9
1758.501	7392.9
1762.893	7101.9
1767.28	7089.9
1771.663	6859.9
1776.042	6733.9
1780.417	6607.9
1784.787	6411.9
1789.154	6399.9
1793.516	6297.9
1797.874	6571.9
1802.228	6597.9
1806.578	6772.9
1810.924	6760.9
1815.266	7391.9
1819.603	6843.9
1823.937	6857.9
1828.266	6787.9
1832.591	6694.9
1836.913	6666.9
1841.23	6653.9
1845.543	6572.9
1849.852	6443.9
1854.156	6375.9
1858.457	6362.9
1862.754	6362.9
1867.047	6252.9
1871.335	6174.9
1875.62	6152.9
1879.9	6138.9
1884.177	6189.9
1888.449	6169.9
1892.718	6089.9
1896.982	6054.9
1901.243	6137.9
1905.499	6084.9
1909.752	5987.9
1914	6036.9
1918.245	6009.9
1922.485	5949.9
1926.722	6018.9
1930.954	5993.9
1935.183	5974.9
1939.408	6014.9
1943.628	6084.9
1947.845	6074.9
1952.058	6124.9
1956.267	6140.9
1960.472	6164.9
1964.673	6124.9
1968.87	6114.9
1973.063	6060.9
1977.252	6033.9
1981.438	5895.9
1985.619	5854.9
1989.797	5785.9
1993.971	5691.9
1998.14	5633.9
2002.306	5606.9
2006.469	5556.9
2010.627	5495.9
2014.781	5448.9
2018.932	5529.9
2023.078	5382.9
2027.221	5352.9
2031.36	5394.9
2035.495	5466.9
2039.627	5363.9
2043.754	5128.9
2047.878	5191.9
2051.998	5166.9
2056.114	5165.9
2060.226	5129.9
2064.334	5084.9
2068.439	4955.9
2072.54	4990.9
2076.637	5151.9
2080.73	5104.9
2084.82	5121.9
2088.906	5051.9
2092.988	4973.9
2097.066	5153.9
2101.14	5164.9
2105.211	5168.9
2109.278	5132.9
2113.342	5195.9
2117.401	5265.9
2121.457	5165.9
2125.509	5144.9
2129.558	4962.9
2133.602	5010.9
2137.643	4957.9
2141.681	4911.9
2145.714	4889.9
2149.744	4791.9
2153.77	4817.9
2157.793	4749.9
2161.812	4729.9
2165.827	4771.9
2169.838	4673.9
2173.846	4664.9
2177.851	4579.9
2181.851	4531.9
2185.848	4710.9
2189.841	4445.9
2193.831	4468.9
2197.817	4295.9
2201.799	4353.9
2205.778	4340.9
2209.753	4320.9
2213.725	4289.9
2217.693	4278.9
2221.657	4292.9
2225.618	3925.9
2229.575	4183.9
2233.529	4132.9
2237.479	4110.9
2241.425	4121.9
2245.368	4181.9
2249.307	4156.9
2253.243	4066.9
2257.175	4128.9
2261.104	4007.9
2265.029	3940.9
2268.95	3887.9
2272.868	3781.9
2276.783	3790.9
2280.694	3663.9
2284.601	3630.9
2288.505	3619.9
2292.405	3538.9
2296.302	3571.9
2300.195	3486.9
2304.085	3538.9
2307.971	3507.9
2311.854	3463.9
2315.734	3453.9
2319.609	3478.9
2323.482	3517.9
2327.351	3407.9
2331.216	3379.9
2335.078	3391.9
2338.937	3370.9
2342.792	3382.9
2346.643	3365.9
2350.492	3300.9
2354.336	3287.9
2358.178	3293.9
2362.015	3285.9
2365.85	3288.9
2369.681	3343.9
2373.508	3279.9
2377.333	3255.9
2381.153	3354.9
2384.971	3323.9
2388.785	3333.9
2392.595	3326.9
2396.402	3372.9
2400.206	3366.9
2404.007	3336.9
2407.804	3294.9
2411.597	3161.9
2415.388	3246.9
2419.174	3137.9
2422.958	3133.9
2426.738	3204.9
2430.515	2980.9
2434.289	3133.9
2438.059	3075.9
2441.825	3067.9
2445.589	2968.9
2449.349	3056.9
2453.106	2941.9
2456.859	2992.9
2460.61	3000.9
2464.356	2982.9
2468.1	2902.9
2471.84	2981.9
2475.577	2949.9
2479.311	2863.9
2483.041	2797.9
2486.768	2699.9
2490.492	2592.9
2494.213	2760.9
2497.93	2779.9
2501.644	2806.9
2505.355	2714.9
2509.062	2636.9
2512.766	2742.9
2516.467	2770.9
2520.165	2672.9
2523.859	2829.9
2527.551	2625.9
2531.239	2717.9
2534.923	2689.9
2538.605	2702.9
2542.283	2595.9
2545.958	2637.9
2549.63	2568.9
2553.299	2572.9
2556.964	2572.9
2560.626	2576.9
2564.285	2516.9
2567.941	2648.9
2571.594	2636.9
2575.243	2469.9
2578.89	2577.9
2582.533	2584.9
2586.173	2510.9
2589.809	2508.9
2593.443	2639.9
2597.073	2530.9
2600.701	2408.9
2604.325	2458.9
2607.946	2476.9
2611.564	2417.9
2615.178	2357.9
2618.79	2323.9
2622.398	2409.9
2626.004	2406.9
2629.606	2301.9
2633.205	2464.9
2636.801	2421.9
2640.394	2291.9
2643.983	2293.9
2647.57	2298.9
2651.153	2237.9
2654.734	2118.9
2658.311	2304.9
2661.885	2202.9
2665.456	2124.9
2669.025	2159.9
2672.589	2096.9
2676.151	2079.9
2679.71	2051.9
2683.266	1958.9
2686.819	2006.9
2690.368	1976.9
2693.915	1993.9
2697.458	2081.9
2700.999	1922.9
2704.536	1879.9
2708.071	1906.9
2711.602	1846.9
2715.13	1840.9
2718.656	1871.9
2722.178	1711.9
2725.697	1826.9
2729.214	1537.9
2732.727	1690.9
2736.237	1758.9
2739.744	1655.9
2743.249	1730.9
2746.75	1747.9
2750.248	1721.9
2753.743	1847.9
2757.236	1677.9
2760.725	1745.9
2764.211	1905.9
2767.695	1802.9
2771.175	1749.9
2774.652	1779.9
2778.127	1717.9
2781.598	1787.9
2785.067	1715.9
2788.532	1764.9
2791.995	1837.9
2795.455	1708.9
2798.911	1685.9
2802.365	1825.9
2805.816	1749.9
2809.264	1706.9
2812.709	1766.9
2816.151	1801.9
2819.59	1819.9
2823.026	1846.9
2826.46	1867.9
2829.89	1825.9
2833.318	1922.9
2836.742	1811.9
2840.164	1830.9
2843.583	1868.9
2846.999	1848.9
2850.412	1859.9
2853.822	1881.9
2857.229	1812.9
2860.634	1835.9
2864.035	1950.9
2867.434	1825.9
2870.83	1854.9
2874.223	1985.9
2877.613	1885.9
2881	2053.9
2884.385	2093.9
2887.766	2123.9
2891.145	2207.9
2894.521	2218.9
2897.894	2200.9
2901.264	1913.9
2904.631	2181.9
2907.996	2175.9
2911.358	2139.9
2914.717	2137.9
2918.073	2190.9
2921.426	2099.9
2924.777	2180.9
2928.124	2291.9
2931.469	2173.9
2934.811	2377.9
2938.15	2308.9
2941.487	2309.9
2944.821	2259.9
2948.152	2342.9
2951.48	2364.9
2954.805	2351.9
2958.128	2293.9
2961.447	2375.9
2964.765	2257.9
2968.079	2364.9
2971.39	2297.9
2974.699	2385.9
2978.005	2353.9
2981.308	2419.9
2984.609	2524.9
2987.907	2448.9
2991.202	2511.9
2994.494	2545.9
2997.784	2507.9
3001.07	2558.9
3004.355	2593.9
3007.636	2648.9
3010.915	2666.9
3014.191	2748.9
3017.464	2759.9
3020.734	2791.9
3024.002	2860.9
3027.267	2918.9
3030.53	2956.9
3033.789	2949.9
3037.046	3047.9
3040.301	3088.9
3043.552	3161.9
3046.801	3198.9
3050.048	3181.9
3053.291	3193.9
3056.532	3346.9
3059.771	3415.9
3063.006	3427.9
3066.239	3487.9
3069.469	3602.9
3072.697	3765.9
3075.922	3834.9
3079.144	3904.9
3082.364	4013.9
3085.581	4187.9
3088.795	4260.9
3092.007	4276.9
3095.216	4533.9
3098.423	4695.9
3101.627	4827.9
3104.828	4898.9
3108.026	4996.9
3111.222	5044.9
3114.416	5062.9
3117.607	5275.9
3120.795	5333.9
3123.98	5422.9
3127.163	5636.9
3130.344	5597.9
3133.521	5711.9
3136.696	5946.9
3139.869	5916.9
3143.039	6073.9
3146.206	6130.9
3149.371	6151.9
3152.533	6410.9
3155.693	6476.9
3158.85	6580.9
3162.005	6669.9
3165.157	6780.9
3168.306	6770.9
3171.453	6718.9
3174.597	6913.9
3177.739	6891.9
3180.878	6818.9
3184.014	6821.9
3187.149	6921.9
3190.28	6841.9
3193.409	6820.9
3196.536	6823.9
3199.659	6804.9
3202.781	6790.9
3205.9	6835.9
3209.016	6766.9
3212.13	6770.9
3215.241	6741.9
3218.35	6782.9
3221.456	6851.9
3224.56	6937.9
3227.661	6949.9
3230.76	6878.9
3233.856	6931.9
3236.95	6833.9
3240.041	6897.9
3243.13	6707.9
3246.216	6808.9
3249.3	6623.9
3252.382	6652.9
3255.46	6680.9
3258.537	5850.9
3261.611	6574.9
3264.682	6440.9
3267.751	6446.9
3270.818	6446.9
3273.882	6287.9
3276.943	6258.9
3280.002	6132.9
3283.059	6118.9
3286.113	6197.9
3289.165	6188.9
3292.214	6099.9
3295.261	5964.9
3298.306	6003.9
3301.348	5888.9
3304.387	5774.9
3307.425	5680.9
3310.459	5734.9
3313.492	5492.9
3316.521	5564.9
3319.549	5398.9
3322.574	5347.9
3325.597	5261.9
3328.617	5192.9
3331.635	5105.9
3334.65	5224.9
3337.663	5122.9
3340.674	5122.9
3343.682	4933.9
3346.688	4913.9
3349.691	4961.9
3352.692	5006.9
3355.691	4809.9
3358.687	4876.9
3361.681	4869.9
3364.673	4855.9
3367.662	4780.9
3370.649	4763.9
3373.633	4807.9
3376.615	4722.9
3379.595	4790.9
3382.572	4660.9
3385.547	4499.9
3388.52	4597.9
3391.49	4546.9
3394.458	4491.9
3397.424	4368.9
3400.387	4412.9
3403.348	4116.9
3406.307	4197.9
3409.263	4113.9
3412.217	4020.9
3415.168	3993.9
3418.118	3978.9
3421.065	3907.9
3424.009	3798.9
3426.951	3819.9
3429.891	3583.9
3432.829	3754.9
3435.764	3693.9
3438.697	3691.9
3441.628	3503.9
3444.557	3620.9
3447.483	3488.9
3450.407	3398.9
3453.328	3395.9
3456.247	3290.9
3459.164	3244.9
3462.079	3064.9
3464.991	3057.9
3467.902	2895.9
3470.809	2876.9
3473.715	2774.9
3476.618	2757.9
3479.519	2605.9
3482.418	2689.9
3485.315	2459.9
3488.209	2387.9
3491.101	2393.9
3493.99	2335.9
3496.878	2015.9
3499.763	2111.9
3502.646	2057.9
3505.527	2089.9
3508.405	1978.9
3511.281	1883.9
3514.155	1862.9
3517.027	1874.9
3519.897	1951.9
3522.764	1720.9
3525.629	1756.9
3528.492	1621.9
3531.352	1569.9
3534.211	1463.9
3537.067	1461.9
3539.921	1326.9
3542.773	1341.9
3545.622	1291.9
3548.469	1323.9
3551.315	1249.9
3554.157	1066.9
3556.998	1033.9
3559.837	945.9
3562.673	854.9
3565.507	986.9
3568.339	904.9
3571.169	899.9
3573.996	849.9
3576.822	805.9
3579.645	787.9
3582.466	799.9
3585.285	708.9
3588.101	649.9
3590.916	690.9
3593.728	614.9
3596.538	657.9
3599.346	539.9
3602.152	655.9
3604.956	578.9
3607.757	423.9
3610.556	565.9
3613.354	443.9
3616.149	449.9
3618.942	439.9
3621.732	220.9
3624.521	439.9
3627.307	289.9
3630.092	314.9
3632.874	268.9
3635.654	309.9
3638.432	384.9
3641.208	235.9
3643.982	274.9
3646.753	245.9
3649.523	227.9
3652.29	252.9
3655.055	262.9
3657.818	140.9
3660.579	166.9
3663.338	241.9
3666.095	49.9
3668.849	258.9
3671.602	94.9
3674.352	227.9
3677.101	65.9
3679.847	-5.1
3682.591	131.9
3685.333	92.9
3688.073	26.9
3690.811	80.9
3693.547	128.9
3696.281	55.9
3699.013	-10.1
3701.742	-32.1
3704.47	83.9
3707.195	-26.1
3709.919	-17.1
3712.64	-33.1
3715.359	-160.1
3718.076	-129.1
3720.792	-34.1
3723.505	-33.1
3726.216	-67.1
3728.925	-29.1
3731.632	-119.1
3734.336	32.9
3737.039	-47.1
3739.74	-104.1
3742.439	179.9
3745.136	-48.1
3747.83	-128.1
3750.523	-30.1
3753.213	377.9
3755.902	-91.1
3758.589	-81.1
3761.273	-15.1
3763.956	-204.1
3766.636	-93.1
3769.315	-115.1
3771.991	-16.1
3774.665	-138.1
3777.338	-147.1
3780.008	-46.1
3782.677	-80.1
3785.343	-16.1
3788.007	-212.1
3790.67	-128.1
3793.33	-197.1
3795.989	-70.1
3798.645	-122.1
3801.299	-69.1
3803.952	-165.1
3806.602	-184.1
3809.251	-133.1
3811.897	-106.1
3814.542	-91.1
3817.184	-117.1
3819.825	-88.1
3822.463	-127.1
3825.1	-140.1
3827.735	-99.1
3830.367	-120.1
3832.998	-206.1
3835.627	-206.1
3838.253	-180.1
3840.878	-84.1
3843.501	-268.1
3846.122	-209.1
3848.741	-153.1
3851.358	-114.1
3853.973	-75.1
3856.586	-165.1
3859.197	-200.1
3861.806	-209.1
3864.414	-87.1
3867.019	-182.1
3869.622	-205.1
3872.224	-181.1
3874.823	-113.1
3877.421	-116.1
3880.016	-72.1
3882.61	-24.1
3885.202	-73.1
3887.792	-76.1
3890.38	-214.1
3892.966	-115.1
3895.55	-151.1
3898.132	-171.1
3900.713	-224.1
3903.291	-133.1
3905.868	-219.1
3908.442	-127.1
3911.015	-191.1
3913.586	-146.1
3916.155	-197.1
3918.722	-189.1
3921.287	-173.1
3923.85	-155.1
3926.411	-245.1
3928.971	-182.1
3931.528	-173.1
3934.084	-212.1
3936.638	-189.1
3939.19	-198.1
3941.74	-189.1
3944.288	-228.1
3946.834	-244.1
3949.378	-187.1
3951.921	-88.1
3954.462	-145.1
3957	-224.1
3959.537	-66.1
3962.072	-152.1
3964.606	-92.1
3967.137	-189.1
3969.667	-193.1
3972.194	-177.1
3974.72	-185.1
3977.244	-117.1
3979.766	-141.1
3982.286	-70.1
3984.805	-183.1
3987.321	-197.1
3989.836	-217.1
3992.349	-118.1
3994.86	-140.1
3997.369	-203.1
3999.877	-319.1
4002.382	-160.1
4004.886	-220.1
4007.388	-209.1
4009.888	-20.1
4012.386	-245.1
4014.883	-191.1
4017.377	-194.1
4019.87	-284.1
4022.361	-151.1
4024.85	-136.1
4027.338	-56.1
4029.823	-203.1
4032.307	-189.1
4034.789	-146.1
4037.269	-103.1
4039.747	-124.1
4042.224	-189.1
4044.699	-199.1
4047.172	-182.1
4049.643	-295.1
4052.112	-120.1
4054.58	-164.1
4057.046	-103.1
4059.51	-124.1
4061.972	-218.1
4064.432	-69.1
4066.891	-248.1
4069.348	-121.1
4071.803	-220.1
4074.256	-218.1
4076.708	-130.1
4079.158	-201.1
4081.606	-256.1
4084.052	-134.1
4086.497	-255.1
4088.939	-117.1
4091.38	-130.1
4093.819	-199.1
4096.257	-1003.1
4098.693	-1005.1
4101.127	-1050.1
4103.559	-1051.1
4105.989	163.9
4108.418	-25.1
4110.845	192.9
4113.27	125.9
4115.694	188.9
4118.115	206.9
4120.535	-210.1
4122.954	-244.1
4125.37	-252.1
4127.785	-172.1
4130.198	-247.1
4132.609	-222.1
4135.019	-1069.1
4137.427	-1080.1
4139.833	-1008.1
4142.237	-881.1
