Data from 2018-2-8_conc=3_RamanShift_06.txt Node
Date: Wed Feb 07 10:12:10 IST 2018
User: aro
Spectrometer: QEPB0276
Trigger mode: 0
Integration Time (sec): 3.000000E1
Scans to average: 1
Electric dark correction enabled: true
Nonlinearity correction enabled: false
Boxcar width: 0
XAxis mode: Raman Shifts
Number of Pixels in Spectrum: 1044
>>>>>Begin Spectral Data<<<<<
160.701	409.1
166.742	539.1
172.777	998.1
178.805	2508.1
184.826	5808.1
190.841	11511.1
196.849	18440.1
202.85	23570.1
208.845	25553.1
214.833	25299.1
220.815	24976.1
226.789	24848.1
232.758	24716.1
238.719	24676.1
244.674	24440.1
250.623	23991.1
256.565	23634.1
262.5	23058.1
268.429	22536.1
274.351	22253.1
280.267	22079.1
286.176	21533.1
292.079	21303.1
297.975	21164.1
303.865	20847.1
309.748	20644.1
315.625	20654.1
321.495	20119.1
327.359	20168.1
333.217	20200.1
339.068	20173.1
344.912	20130.1
350.751	20073.1
356.583	20086.1
362.408	20015.1
368.227	20089.1
374.04	20205.1
379.847	20223.1
385.647	20359.1
391.44	20570.1
397.228	20590.1
403.009	20717.1
408.784	20863.1
414.553	20964.1
420.315	20969.1
426.071	21129.1
431.821	21011.1
437.565	20956.1
443.302	20774.1
449.033	20776.1
454.758	20701.1
460.477	20494.1
466.189	20440.1
471.896	20415.1
477.596	20246.1
483.29	20352.1
488.978	20238.1
494.66	20249.1
500.335	20215.1
506.005	20112.1
511.668	19862.1
517.325	19857.1
522.977	19589.1
528.622	19546.1
534.261	19422.1
539.894	19340.1
545.521	19242.1
551.141	19195.1
556.756	18942.1
562.365	18857.1
567.968	18797.1
573.565	18648.1
579.155	18399.1
584.74	18443.1
590.319	18165.1
595.892	18262.1
601.459	18193.1
607.02	18238.1
612.575	18232.1
618.124	18050.1
623.667	18209.1
629.204	18124.1
634.735	18206.1
640.261	18070.1
645.781	18164.1
651.294	17900.1
656.802	17718.1
662.304	17637.1
667.8	17374.1
673.29	17449.1
678.775	17309.1
684.254	17272.1
689.726	17385.1
695.193	17134.1
700.655	17145.1
706.11	17334.1
711.56	17235.1
717.004	17303.1
722.442	17186.1
727.874	17260.1
733.301	17232.1
738.722	17258.1
744.137	17122.1
749.547	16924.1
754.951	16885.1
760.349	16720.1
765.741	16612.1
771.128	16648.1
776.509	16565.1
781.885	16700.1
787.254	16601.1
792.618	16670.1
797.977	16741.1
803.33	16782.1
808.677	16772.1
814.019	16782.1
819.355	16793.1
824.686	16779.1
830.011	16812.1
835.33	16501.1
840.644	16303.1
845.952	16380.1
851.255	16112.1
856.552	16084.1
861.844	15908.1
867.13	15851.1
872.41	15874.1
877.686	15832.1
882.955	15874.1
888.219	15950.1
893.478	16085.1
898.731	15892.1
903.979	15860.1
909.221	15881.1
914.458	15783.1
919.69	15577.1
924.916	15476.1
930.136	15285.1
935.351	15267.1
940.561	14977.1
945.766	14915.1
950.965	14795.1
956.158	14858.1
961.347	14822.1
966.529	14845.1
971.707	14812.1
976.879	14888.1
982.046	14917.1
987.208	14931.1
992.364	14805.1
997.515	14747.1
1002.66	14605.1
1007.801	14706.1
1012.936	14556.1
1018.066	14682.1
1023.19	14501.1
1028.309	14374.1
1033.423	14563.1
1038.532	14613.1
1043.636	14741.1
1048.734	14742.1
1053.827	14865.1
1058.915	14837.1
1063.998	14703.1
1069.075	14494.1
1074.147	14375.1
1079.214	14321.1
1084.276	14019.1
1089.333	13955.1
1094.385	13941.1
1099.431	14063.1
1104.472	13866.1
1109.509	14051.1
1114.54	14055.1
1119.565	14156.1
1124.586	14171.1
1129.602	14277.1
1134.613	14113.1
1139.618	14081.1
1144.619	13831.1
1149.614	13613.1
1154.604	13498.1
1159.589	13430.1
1164.57	13199.1
1169.545	13233.1
1174.515	13254.1
1179.48	13441.1
1184.44	13476.1
1189.395	13608.1
1194.345	13690.1
1199.29	13640.1
1204.23	13746.1
1209.165	13657.1
1214.095	13521.1
1219.021	13369.1
1223.941	13335.1
1228.856	13424.1
1233.766	13425.1
1238.672	13301.1
1243.572	13229.1
1248.467	13276.1
1253.358	13418.1
1258.244	13425.1
1263.124	13305.1
1268	13219.1
1272.871	13195.1
1277.737	13147.1
1282.599	12914.1
1287.455	12808.1
1292.306	12511.1
1297.153	12662.1
1301.995	12493.1
1306.832	12422.1
1311.664	12334.1
1316.491	12429.1
1321.314	12410.1
1326.132	12358.1
1330.945	12328.1
1335.753	12138.1
1340.556	12082.1
1345.354	11873.1
1350.148	11612.1
1354.937	11509.1
1359.722	11497.1
1364.501	11247.1
1369.276	11077.1
1374.046	11172.1
1378.811	11286.1
1383.572	11312.1
1388.327	11114.1
1393.079	11521.1
1397.825	11623.1
1402.567	11574.1
1407.304	11576.1
1412.036	11590.1
1416.764	11484.1
1421.487	11695.1
1426.205	11302.1
1430.919	11174.1
1435.628	11033.1
1440.333	11027.1
1445.032	10865.1
1449.727	10874.1
1454.418	10754.1
1459.104	10737.1
1463.785	10569.1
1468.462	10659.1
1473.134	10624.1
1477.802	10520.1
1482.465	10516.1
1487.123	10155.1
1491.777	10303.1
1496.426	10124.1
1501.071	9949.1
1505.711	10032.1
1510.347	10015.1
1514.978	10199.1
1519.604	10218.1
1524.226	10336.1
1528.844	10583.1
1533.457	10550.1
1538.065	10682.1
1542.669	10753.1
1547.269	10785.1
1551.864	10778.1
1556.454	10867.1
1561.041	10780.1
1565.622	10674.1
1570.199	10481.1
1574.772	10475.1
1579.34	10240.1
1583.904	10419.1
1588.464	10366.1
1593.019	10386.1
1597.569	10489.1
1602.115	10572.1
1606.657	10659.1
1611.195	10642.1
1615.728	10670.1
1620.256	10753.1
1624.78	10779.1
1629.3	10794.1
1633.816	10628.1
1638.327	10517.1
1642.834	10466.1
1647.336	10480.1
1651.834	10341.1
1656.328	10406.1
1660.817	10295.1
1665.302	10341.1
1669.783	10271.1
1674.259	10136.1
1678.732	9918.1
1683.199	9600.1
1687.663	9516.1
1692.122	9146.1
1696.577	8895.1
1701.028	8794.1
1705.474	8839.1
1709.917	8811.1
1714.355	8787.1
1718.788	8660.1
1723.218	8560.1
1727.643	8330.1
1732.064	8248.1
1736.481	8257.1
1740.893	8043.1
1745.301	7846.1
1749.705	7962.1
1754.105	7576.1
1758.501	7527.1
1762.893	7194.1
1767.28	7199.1
1771.663	6899.1
1776.042	6813.1
1780.417	6695.1
1784.787	6521.1
1789.154	6594.1
1793.516	6470.1
1797.874	6714.1
1802.228	6800.1
1806.578	6999.1
1810.924	6905.1
1815.266	7359.1
1819.603	6954.1
1823.937	6978.1
1828.266	6875.1
1832.591	6901.1
1836.913	6760.1
1841.23	6763.1
1845.543	6745.1
1849.852	6513.1
1854.156	6587.1
1858.457	6562.1
1862.754	6254.1
1867.047	6385.1
1871.335	6242.1
1875.62	6223.1
1879.9	6230.1
1884.177	6345.1
1888.449	6177.1
1892.718	6201.1
1896.982	6073.1
1901.243	6305.1
1905.499	6224.1
1909.752	6144.1
1914	6197.1
1918.245	6112.1
1922.485	6099.1
1926.722	6154.1
1930.954	6136.1
1935.183	6231.1
1939.408	6186.1
1943.628	6245.1
1947.845	6233.1
1952.058	6310.1
1956.267	6188.1
1960.472	6177.1
1964.673	6176.1
1968.87	6243.1
1973.063	6229.1
1977.252	6134.1
1981.438	6067.1
1985.619	5963.1
1989.797	5916.1
1993.971	5802.1
1998.14	5635.1
2002.306	5701.1
2006.469	5686.1
2010.627	5613.1
2014.781	5601.1
2018.932	5641.1
2023.078	5437.1
2027.221	5431.1
2031.36	5503.1
2035.495	5532.1
2039.627	5452.1
2043.754	5265.1
2047.878	5320.1
2051.998	5247.1
2056.114	5283.1
2060.226	5297.1
2064.334	5203.1
2068.439	5077.1
2072.54	5070.1
2076.637	5259.1
2080.73	5207.1
2084.82	5159.1
2088.906	5228.1
2092.988	5137.1
2097.066	5309.1
2101.14	5212.1
2105.211	5243.1
2109.278	5280.1
2113.342	5303.1
2117.401	5395.1
2121.457	5290.1
2125.509	5301.1
2129.558	5117.1
2133.602	5137.1
2137.643	5107.1
2141.681	5020.1
2145.714	5007.1
2149.744	4950.1
2153.77	4972.1
2157.793	4875.1
2161.812	4983.1
2165.827	4886.1
2169.838	4788.1
2173.846	4783.1
2177.851	4694.1
2181.851	4636.1
2185.848	4634.1
2189.841	4510.1
2193.831	4592.1
2197.817	4406.1
2201.799	4412.1
2205.778	4457.1
2209.753	4455.1
2213.725	4509.1
2217.693	4353.1
2221.657	4396.1
2225.618	4244.1
2229.575	4280.1
2233.529	4223.1
2237.479	4338.1
2241.425	4245.1
2245.368	4304.1
2249.307	4187.1
2253.243	4205.1
2257.175	4201.1
2261.104	4101.1
2265.029	3973.1
2268.95	4031.1
2272.868	3931.1
2276.783	3967.1
2280.694	3699.1
2284.601	3754.1
2288.505	3796.1
2292.405	3674.1
2296.302	3759.1
2300.195	3683.1
2304.085	3748.1
2307.971	3638.1
2311.854	3603.1
2315.734	3528.1
2319.609	3573.1
2323.482	3649.1
2327.351	3527.1
2331.216	3536.1
2335.078	3497.1
2338.937	3475.1
2342.792	3517.1
2346.643	3427.1
2350.492	3392.1
2354.336	3405.1
2358.178	3343.1
2362.015	3354.1
2365.85	3513.1
2369.681	3429.1
2373.508	3377.1
2377.333	3313.1
2381.153	3457.1
2384.971	3424.1
2388.785	3453.1
2392.595	3437.1
2396.402	3464.1
2400.206	3501.1
2404.007	3451.1
2407.804	3395.1
2411.597	3275.1
2415.388	3329.1
2419.174	3286.1
2422.958	3247.1
2426.738	3252.1
2430.515	3102.1
2434.289	3268.1
2438.059	3179.1
2441.825	3207.1
2445.589	2992.1
2449.349	3151.1
2453.106	3119.1
2456.859	3091.1
2460.61	2976.1
2464.356	3028.1
2468.1	3037.1
2471.84	3045.1
2475.577	3003.1
2479.311	2984.1
2483.041	2880.1
2486.768	2792.1
2490.492	2720.1
2494.213	3109.1
2497.93	2911.1
2501.644	2906.1
2505.355	2853.1
2509.062	2911.1
2512.766	2800.1
2516.467	2891.1
2520.165	2834.1
2523.859	2883.1
2527.551	2622.1
2531.239	2802.1
2534.923	2825.1
2538.605	2823.1
2542.283	2701.1
2545.958	2785.1
2549.63	2714.1
2553.299	2677.1
2556.964	2690.1
2560.626	2739.1
2564.285	2617.1
2567.941	2752.1
2571.594	2727.1
2575.243	2654.1
2578.89	2696.1
2582.533	2704.1
2586.173	2699.1
2589.809	2606.1
2593.443	2785.1
2597.073	2684.1
2600.701	2507.1
2604.325	2624.1
2607.946	2554.1
2611.564	2548.1
2615.178	2417.1
2618.79	2461.1
2622.398	2517.1
2626.004	2494.1
2629.606	2437.1
2633.205	2585.1
2636.801	2483.1
2640.394	2418.1
2643.983	2393.1
2647.57	2434.1
2651.153	2325.1
2654.734	2234.1
2658.311	2422.1
2661.885	2294.1
2665.456	2242.1
2669.025	2246.1
2672.589	2178.1
2676.151	2103.1
2679.71	2108.1
2683.266	2273.1
2686.819	2139.1
2690.368	2048.1
2693.915	2084.1
2697.458	2146.1
2700.999	1978.1
2704.536	1983.1
2708.071	2011.1
2711.602	1949.1
2715.13	1963.1
2718.656	1929.1
2722.178	1839.1
2725.697	1837.1
2729.214	1622.1
2732.727	1793.1
2736.237	1807.1
2739.744	1804.1
2743.249	1872.1
2746.75	1833.1
2750.248	1898.1
2753.743	1929.1
2757.236	1839.1
2760.725	1905.1
2764.211	2067.1
2767.695	1862.1
2771.175	1917.1
2774.652	1861.1
2778.127	1893.1
2781.598	1820.1
2785.067	1900.1
2788.532	1842.1
2791.995	1881.1
2795.455	1824.1
2798.911	1787.1
2802.365	1936.1
2805.816	1825.1
2809.264	1842.1
2812.709	1921.1
2816.151	1806.1
2819.59	2010.1
2823.026	1925.1
2826.46	1976.1
2829.89	1973.1
2833.318	2128.1
2836.742	1933.1
2840.164	1908.1
2843.583	2008.1
2846.999	2021.1
2850.412	1980.1
2853.822	2028.1
2857.229	1864.1
2860.634	2005.1
2864.035	2031.1
2867.434	1949.1
2870.83	1907.1
2874.223	2102.1
2877.613	1954.1
2881	2172.1
2884.385	2220.1
2887.766	2139.1
2891.145	2087.1
2894.521	2282.1
2897.894	2280.1
2901.264	2001.1
2904.631	2250.1
2907.996	2280.1
2911.358	2202.1
2914.717	2210.1
2918.073	2198.1
2921.426	2230.1
2924.777	2313.1
2928.124	2345.1
2931.469	2253.1
2934.811	2478.1
2938.15	2355.1
2941.487	2399.1
2944.821	2330.1
2948.152	2466.1
2951.48	2443.1
2954.805	2398.1
2958.128	2286.1
2961.447	2426.1
2964.765	2304.1
2968.079	2435.1
2971.39	2393.1
2974.699	2425.1
2978.005	2399.1
2981.308	2480.1
2984.609	2594.1
2987.907	2472.1
2991.202	2603.1
2994.494	2631.1
2997.784	2237.1
3001.07	2605.1
3004.355	2595.1
3007.636	2673.1
3010.915	2723.1
3014.191	2828.1
3017.464	2830.1
3020.734	2749.1
3024.002	2876.1
3027.267	2913.1
3030.53	2983.1
3033.789	2963.1
3037.046	3135.1
3040.301	3095.1
3043.552	3148.1
3046.801	3279.1
3050.048	3062.1
3053.291	3079.1
3056.532	3320.1
3059.771	3525.1
3063.006	3347.1
3066.239	3471.1
3069.469	3559.1
3072.697	3757.1
3075.922	3820.1
3079.144	3871.1
3082.364	3939.1
3085.581	4200.1
3088.795	4095.1
3092.007	4193.1
3095.216	4403.1
3098.423	4632.1
3101.627	4712.1
3104.828	4774.1
3108.026	4834.1
3111.222	4929.1
3114.416	4895.1
3117.607	5030.1
3120.795	5160.1
3123.98	5236.1
3127.163	5497.1
3130.344	5454.1
3133.521	5532.1
3136.696	5645.1
3139.869	5720.1
3143.039	5879.1
3146.206	5846.1
3149.371	5975.1
3152.533	6116.1
3155.693	6266.1
3158.85	6311.1
3162.005	6358.1
3165.157	6490.1
3168.306	6570.1
3171.453	6412.1
3174.597	6698.1
3177.739	6680.1
3180.878	6584.1
3184.014	6620.1
3187.149	6599.1
3190.28	6498.1
3193.409	6536.1
3196.536	6508.1
3199.659	6398.1
3202.781	6504.1
3205.9	6643.1
3209.016	6501.1
3212.13	6539.1
3215.241	6480.1
3218.35	6507.1
3221.456	6595.1
3224.56	6658.1
3227.661	6607.1
3230.76	6740.1
3233.856	6658.1
3236.95	6567.1
3240.041	6635.1
3243.13	6408.1
3246.216	6540.1
3249.3	6322.1
3252.382	6400.1
3255.46	6421.1
3258.537	6689.1
3261.611	6361.1
3264.682	6167.1
3267.751	6128.1
3270.818	6275.1
3273.882	6070.1
3276.943	5989.1
3280.002	5955.1
3283.059	5948.1
3286.113	5896.1
3289.165	5974.1
3292.214	5945.1
3295.261	5764.1
3298.306	5838.1
3301.348	5719.1
3304.387	5665.1
3307.425	5501.1
3310.459	5559.1
3313.492	5308.1
3316.521	5270.1
3319.549	5189.1
3322.574	5200.1
3325.597	5091.1
3328.617	5152.1
3331.635	4958.1
3334.65	4984.1
3337.663	4974.1
3340.674	4895.1
3343.682	4866.1
3346.688	4843.1
3349.691	4867.1
3352.692	4932.1
3355.691	4656.1
3358.687	4713.1
3361.681	4746.1
3364.673	4756.1
3367.662	4660.1
3370.649	4598.1
3373.633	4641.1
3376.615	4636.1
3379.595	4712.1
3382.572	4607.1
3385.547	4417.1
3388.52	4569.1
3391.49	4418.1
3394.458	4413.1
3397.424	4265.1
3400.387	4366.1
3403.348	4026.1
3406.307	4109.1
3409.263	4064.1
3412.217	3912.1
3415.168	3967.1
3418.118	3965.1
3421.065	3875.1
3424.009	3736.1
3426.951	3790.1
3429.891	3546.1
3432.829	3675.1
3435.764	3717.1
3438.697	3695.1
3441.628	3440.1
3444.557	3530.1
3447.483	3499.1
3450.407	3311.1
3453.328	3124.1
3456.247	3256.1
3459.164	3201.1
3462.079	3064.1
3464.991	3022.1
3467.902	2928.1
3470.809	2806.1
3473.715	2776.1
3476.618	2681.1
3479.519	2649.1
3482.418	2666.1
3485.315	2447.1
3488.209	2403.1
3491.101	2384.1
3493.99	2405.1
3496.878	2017.1
3499.763	2105.1
3502.646	2110.1
3505.527	2186.1
3508.405	2029.1
3511.281	1921.1
3514.155	1933.1
3517.027	1878.1
3519.897	2025.1
3522.764	1722.1
3525.629	1798.1
3528.492	1669.1
3531.352	1597.1
3534.211	1589.1
3537.067	1605.1
3539.921	1518.1
3542.773	1404.1
3545.622	1387.1
3548.469	1402.1
3551.315	1338.1
3554.157	1245.1
3556.998	1125.1
3559.837	1050.1
3562.673	1021.1
3565.507	1039.1
3568.339	919.1
3571.169	1039.1
3573.996	958.1
3576.822	956.1
3579.645	949.1
3582.466	870.1
3585.285	759.1
3588.101	763.1
3590.916	800.1
3593.728	704.1
3596.538	802.1
3599.346	667.1
3602.152	727.1
3604.956	660.1
3607.757	511.1
3610.556	690.1
3613.354	558.1
3616.149	594.1
3618.942	559.1
3621.732	299.1
3624.521	567.1
3627.307	486.1
3630.092	428.1
3632.874	319.1
3635.654	456.1
3638.432	503.1
3641.208	381.1
3643.982	433.1
3646.753	343.1
3649.523	414.1
3652.29	380.1
3655.055	379.1
3657.818	269.1
3660.579	315.1
3663.338	392.1
3666.095	206.1
3668.849	391.1
3671.602	221.1
3674.352	343.1
3677.101	215.1
3679.847	188.1
3682.591	276.1
3685.333	268.1
3688.073	181.1
3690.811	261.1
3693.547	285.1
3696.281	250.1
3699.013	125.1
3701.742	140.1
3704.47	208.1
3707.195	127.1
3709.919	107.1
3712.64	185.1
3715.359	39.1
3718.076	-62.9
3720.792	92.1
3723.505	97.1
3726.216	67.1
3728.925	120.1
3731.632	-32.9
3734.336	190.1
3737.039	68.1
3739.74	114.1
3742.439	121.1
3745.136	60.1
3747.83	24.1
3750.523	49.1
3753.213	-193.9
3755.902	29.1
3758.589	167.1
3761.273	153.1
3763.956	-35.9
3766.636	77.1
3769.315	-107.9
3771.991	126.1
3774.665	-89.9
3777.338	171.1
3780.008	111.1
3782.677	-108.9
3785.343	154.1
3788.007	13.1
3790.67	7.1
3793.33	-82.9
3795.989	3.1
3798.645	42.1
3801.299	134.1
3803.952	-27.9
3806.602	3.1
3809.251	42.1
3811.897	35.1
3814.542	-23.9
3817.184	0.1
3819.825	104.1
3822.463	-70.9
3825.1	-12.9
3827.735	47.1
3830.367	-47.9
3832.998	-120.9
3835.627	-62.9
3838.253	-63.9
3840.878	-16.9
3843.501	-122.9
3846.122	-18.9
3848.741	-110.9
3851.358	-11.9
3853.973	132.1
3856.586	-12.9
3859.197	-29.9
3861.806	-21.9
3864.414	39.1
3867.019	-23.9
3869.622	-70.9
3872.224	-99.9
3874.823	33.1
3877.421	39.1
3880.016	52.1
3882.61	156.1
3885.202	156.1
3887.792	131.1
3890.38	-33.9
3892.966	56.1
3895.55	9.1
3898.132	12.1
3900.713	-84.9
3903.291	1.1
3905.868	-79.9
3908.442	-56.9
3911.015	-59.9
3913.586	-18.9
3916.155	-84.9
3918.722	27.1
3921.287	-26.9
3923.85	-122.9
3926.411	-67.9
3928.971	-106.9
3931.528	-44.9
3934.084	-56.9
3936.638	-57.9
3939.19	-58.9
3941.74	15.1
3944.288	-76.9
3946.834	-16.9
3949.378	-77.9
3951.921	48.1
3954.462	-10.9
3957	-66.9
3959.537	10.1
3962.072	-0.9
3964.606	65.1
3967.137	-70.9
3969.667	-28.9
3972.194	-11.9
3974.72	-57.9
3977.244	42.1
3979.766	-20.9
3982.286	96.1
3984.805	-89.9
3987.321	-147.9
3989.836	-64.9
3992.349	50.1
3994.86	6.1
3997.369	-36.9
3999.877	-75.9
4002.382	-48.9
4004.886	-19.9
4007.388	3.1
4009.888	47.1
4012.386	-4.9
4014.883	-21.9
4017.377	-36.9
4019.87	-171.9
4022.361	6.1
4024.85	21.1
4027.338	-60.9
4029.823	-49.9
4032.307	-29.9
4034.789	29.1
4037.269	25.1
4039.747	80.1
4042.224	-97.9
4044.699	-50.9
4047.172	24.1
4049.643	-37.9
4052.112	117.1
4054.58	-11.9
4057.046	18.1
4059.51	32.1
4061.972	-76.9
4064.432	61.1
4066.891	-124.9
4069.348	25.1
4071.803	-66.9
4074.256	-57.9
4076.708	-13.9
4079.158	-22.9
4081.606	-92.9
4084.052	8.1
4086.497	-86.9
4088.939	66.1
4091.38	46.1
4093.819	-70.9
4096.257	-1079.9
4098.693	-1079.9
4101.127	-1135.9
4103.559	-1150.9
4105.989	134.1
4108.418	122.1
4110.845	360.1
4113.27	229.1
4115.694	409.1
4118.115	412.1
4120.535	-60.9
4122.954	-95.9
4125.37	-140.9
4127.785	16.1
4130.198	-73.9
4132.609	-48.9
4135.019	-1164.9
4137.427	-1164.9
4139.833	-1116.9
4142.237	-1007.9
