Data from 2018-2-8_conc=3_RamanShift_16.txt Node
Date: Wed Feb 07 10:20:40 IST 2018
User: aro
Spectrometer: QEPB0276
Trigger mode: 0
Integration Time (sec): 3.000000E1
Scans to average: 1
Electric dark correction enabled: true
Nonlinearity correction enabled: false
Boxcar width: 0
XAxis mode: Raman Shifts
Number of Pixels in Spectrum: 1044
>>>>>Begin Spectral Data<<<<<
160.701	425.1
166.742	503.1
172.777	1040.1
178.805	2546.1
184.826	5719.1
190.841	11366.1
196.849	18154.1
202.85	23193.1
208.845	25138.1
214.833	24976.1
220.815	24555.1
226.789	23137.1
232.758	24372.1
238.719	24242.1
244.674	23927.1
250.623	23505.1
256.565	23111.1
262.5	22646.1
268.429	22030.1
274.351	21839.1
280.267	21686.1
286.176	21075.1
292.079	20857.1
297.975	20518.1
303.865	20410.1
309.748	20241.1
315.625	20076.1
321.495	19685.1
327.359	19697.1
333.217	19747.1
339.068	19630.1
344.912	19626.1
350.751	19549.1
356.583	19670.1
362.408	19576.1
368.227	19604.1
374.04	19736.1
379.847	19719.1
385.647	19873.1
391.44	20030.1
397.228	20047.1
403.009	20288.1
408.784	20371.1
414.553	20535.1
420.315	20546.1
426.071	20586.1
431.821	20504.1
437.565	20455.1
443.302	20279.1
449.033	20235.1
454.758	20175.1
460.477	20017.1
466.189	19931.1
471.896	19832.1
477.596	19795.1
483.29	19748.1
488.978	19799.1
494.66	19780.1
500.335	19650.1
506.005	19584.1
511.668	19317.1
517.325	19255.1
522.977	19089.1
528.622	19025.1
534.261	18889.1
539.894	18772.1
545.521	18724.1
551.141	18606.1
556.756	18405.1
562.365	18304.1
567.968	18176.1
573.565	18110.1
579.155	17895.1
584.74	17881.1
590.319	17731.1
595.892	17694.1
601.459	17704.1
607.02	17642.1
612.575	17691.1
618.124	17486.1
623.667	17751.1
629.204	17596.1
634.735	17712.1
640.261	17545.1
645.781	17652.1
651.294	17402.1
656.802	17253.1
662.304	17185.1
667.8	16896.1
673.29	16927.1
678.775	16781.1
684.254	16802.1
689.726	16865.1
695.193	16653.1
700.655	16593.1
706.11	16824.1
711.56	16666.1
717.004	16723.1
722.442	16833.1
727.874	16678.1
733.301	16704.1
738.722	16777.1
744.137	16552.1
749.547	16440.1
754.951	16345.1
760.349	16275.1
765.741	16117.1
771.128	16035.1
776.509	16183.1
781.885	16102.1
787.254	16059.1
792.618	16215.1
797.977	16226.1
803.33	16241.1
808.677	16319.1
814.019	16246.1
819.355	16251.1
824.686	16325.1
830.011	16301.1
835.33	16083.1
840.644	15869.1
845.952	15842.1
851.255	15646.1
856.552	15576.1
861.844	15415.1
867.13	15393.1
872.41	15353.1
877.686	15284.1
882.955	15331.1
888.219	15445.1
893.478	15530.1
898.731	15402.1
903.979	15280.1
909.221	15382.1
914.458	15237.1
919.69	15069.1
924.916	14974.1
930.136	14739.1
935.351	14804.1
940.561	14499.1
945.766	14427.1
950.965	14322.1
956.158	14385.1
961.347	14472.1
966.529	14425.1
971.707	14428.1
976.879	14423.1
982.046	14413.1
987.208	14433.1
992.364	14370.1
997.515	14252.1
1002.66	14090.1
1007.801	14245.1
1012.936	14209.1
1018.066	14255.1
1023.19	13993.1
1028.309	13899.1
1033.423	13959.1
1038.532	14120.1
1043.636	14345.1
1048.734	14302.1
1053.827	14356.1
1058.915	14342.1
1063.998	14162.1
1069.075	14027.1
1074.147	13881.1
1079.214	13848.1
1084.276	13615.1
1089.333	13567.1
1094.385	13505.1
1099.431	13511.1
1104.472	13483.1
1109.509	13571.1
1114.54	13755.1
1119.565	13763.1
1124.586	13794.1
1129.602	13729.1
1134.613	13675.1
1139.618	13486.1
1144.619	13379.1
1149.614	13161.1
1154.604	12983.1
1159.589	12987.1
1164.57	12756.1
1169.545	12759.1
1174.515	12827.1
1179.48	12955.1
1184.44	13056.1
1189.395	13133.1
1194.345	13222.1
1199.29	13234.1
1204.23	13292.1
1209.165	13238.1
1214.095	13068.1
1219.021	12936.1
1223.941	12944.1
1228.856	13005.1
1233.766	12875.1
1238.672	12904.1
1243.572	12814.1
1248.467	12925.1
1253.358	12985.1
1258.244	12985.1
1263.124	12905.1
1268	12745.1
1272.871	12787.1
1277.737	12669.1
1282.599	12538.1
1287.455	12397.1
1292.306	12154.1
1297.153	12249.1
1301.995	11991.1
1306.832	11984.1
1311.664	11941.1
1316.491	11989.1
1321.314	12056.1
1326.132	11997.1
1330.945	11926.1
1335.753	11788.1
1340.556	11724.1
1345.354	11556.1
1350.148	11323.1
1354.937	11148.1
1359.722	11095.1
1364.501	10917.1
1369.276	10692.1
1374.046	10831.1
1378.811	10912.1
1383.572	11026.1
1388.327	10747.1
1393.079	11201.1
1397.825	11285.1
1402.567	11227.1
1407.304	11192.1
1412.036	11237.1
1416.764	11133.1
1421.487	11227.1
1426.205	11028.1
1430.919	10797.1
1435.628	10683.1
1440.333	10591.1
1445.032	10420.1
1449.727	10518.1
1454.418	10451.1
1459.104	10488.1
1463.785	10285.1
1468.462	10336.1
1473.134	10346.1
1477.802	10108.1
1482.465	10196.1
1487.123	9898.1
1491.777	9991.1
1496.426	9909.1
1501.071	9694.1
1505.711	9716.1
1510.347	9749.1
1514.978	9850.1
1519.604	9922.1
1524.226	10030.1
1528.844	10276.1
1533.457	10234.1
1538.065	10316.1
1542.669	10360.1
1547.269	10492.1
1551.864	10391.1
1556.454	10519.1
1561.041	10402.1
1565.622	10470.1
1570.199	10186.1
1574.772	10150.1
1579.34	9945.1
1583.904	10042.1
1588.464	10037.1
1593.019	10156.1
1597.569	10216.1
1602.115	10240.1
1606.657	10331.1
1611.195	10380.1
1615.728	10418.1
1620.256	10475.1
1624.78	10457.1
1629.3	10502.1
1633.816	10327.1
1638.327	10304.1
1642.834	10234.1
1647.336	10046.1
1651.834	10090.1
1656.328	10109.1
1660.817	10003.1
1665.302	10049.1
1669.783	10057.1
1674.259	9888.1
1678.732	9584.1
1683.199	9396.1
1687.663	9288.1
1692.122	8886.1
1696.577	8713.1
1701.028	8650.1
1705.474	8547.1
1709.917	8570.1
1714.355	8531.1
1718.788	8387.1
1723.218	8316.1
1727.643	8104.1
1732.064	7978.1
1736.481	7935.1
1740.893	7777.1
1745.301	7714.1
1749.705	7729.1
1754.105	7320.1
1758.501	7362.1
1762.893	6983.1
1767.28	6918.1
1771.663	6665.1
1776.042	6599.1
1780.417	6466.1
1784.787	6350.1
1789.154	6371.1
1793.516	6329.1
1797.874	6511.1
1802.228	6600.1
1806.578	6802.1
1810.924	6683.1
1815.266	7805.1
1819.603	6770.1
1823.937	6729.1
1828.266	6694.1
1832.591	6651.1
1836.913	6593.1
1841.23	6607.1
1845.543	6526.1
1849.852	6369.1
1854.156	6375.1
1858.457	6306.1
1862.754	6109.1
1867.047	6233.1
1871.335	6101.1
1875.62	5997.1
1879.9	6026.1
1884.177	6122.1
1888.449	6024.1
1892.718	6053.1
1896.982	5963.1
1901.243	6100.1
1905.499	5978.1
1909.752	6030.1
1914	6042.1
1918.245	5935.1
1922.485	5988.1
1926.722	6028.1
1930.954	5978.1
1935.183	6074.1
1939.408	5989.1
1943.628	5998.1
1947.845	6071.1
1952.058	6115.1
1956.267	5992.1
1960.472	5978.1
1964.673	6021.1
1968.87	6085.1
1973.063	6102.1
1977.252	5950.1
1981.438	5907.1
1985.619	5810.1
1989.797	5686.1
1993.971	5673.1
1998.14	5510.1
2002.306	5475.1
2006.469	5466.1
2010.627	5436.1
2014.781	5390.1
2018.932	5455.1
2023.078	5323.1
2027.221	5260.1
2031.36	5304.1
2035.495	5364.1
2039.627	5308.1
2043.754	5227.1
2047.878	5178.1
2051.998	5125.1
2056.114	5163.1
2060.226	5111.1
2064.334	5084.1
2068.439	4964.1
2072.54	5003.1
2076.637	5119.1
2080.73	5056.1
2084.82	5016.1
2088.906	5006.1
2092.988	5038.1
2097.066	5141.1
2101.14	5085.1
2105.211	5105.1
2109.278	5072.1
2113.342	5128.1
2117.401	5203.1
2121.457	5079.1
2125.509	5164.1
2129.558	4963.1
2133.602	5031.1
2137.643	4872.1
2141.681	4885.1
2145.714	4823.1
2149.744	4661.1
2153.77	4780.1
2157.793	4715.1
2161.812	4870.1
2165.827	4717.1
2169.838	4638.1
2173.846	4609.1
2177.851	4561.1
2181.851	4462.1
2185.848	4500.1
2189.841	4431.1
2193.831	4447.1
2197.817	4237.1
2201.799	4278.1
2205.778	4327.1
2209.753	4328.1
2213.725	4302.1
2217.693	4189.1
2221.657	4279.1
2225.618	4141.1
2229.575	4144.1
2233.529	3994.1
2237.479	4171.1
2241.425	4094.1
2245.368	4226.1
2249.307	4063.1
2253.243	4116.1
2257.175	4041.1
2261.104	3928.1
2265.029	3888.1
2268.95	3902.1
2272.868	3840.1
2276.783	3780.1
2280.694	3695.1
2284.601	3638.1
2288.505	3664.1
2292.405	3558.1
2296.302	3577.1
2300.195	3463.1
2304.085	3593.1
2307.971	3508.1
2311.854	3511.1
2315.734	3460.1
2319.609	3430.1
2323.482	3566.1
2327.351	3450.1
2331.216	3378.1
2335.078	3297.1
2338.937	3360.1
2342.792	3409.1
2346.643	3309.1
2350.492	3318.1
2354.336	3286.1
2358.178	3202.1
2362.015	3192.1
2365.85	3336.1
2369.681	3280.1
2373.508	3274.1
2377.333	3236.1
2381.153	3328.1
2384.971	3301.1
2388.785	3280.1
2392.595	3314.1
2396.402	3360.1
2400.206	3373.1
2404.007	3368.1
2407.804	3270.1
2411.597	3212.1
2415.388	3245.1
2419.174	3160.1
2422.958	3163.1
2426.738	3094.1
2430.515	3016.1
2434.289	3145.1
2438.059	3108.1
2441.825	3109.1
2445.589	2920.1
2449.349	3124.1
2453.106	2964.1
2456.859	2930.1
2460.61	2871.1
2464.356	2935.1
2468.1	2920.1
2471.84	2938.1
2475.577	2931.1
2479.311	2831.1
2483.041	2831.1
2486.768	2692.1
2490.492	2559.1
2494.213	2787.1
2497.93	2696.1
2501.644	2827.1
2505.355	2787.1
2509.062	2772.1
2512.766	2771.1
2516.467	2771.1
2520.165	2740.1
2523.859	2801.1
2527.551	2540.1
2531.239	2683.1
2534.923	2742.1
2538.605	2778.1
2542.283	2657.1
2545.958	2736.1
2549.63	2563.1
2553.299	2620.1
2556.964	2642.1
2560.626	2677.1
2564.285	2536.1
2567.941	2640.1
2571.594	2643.1
2575.243	2487.1
2578.89	2610.1
2582.533	2635.1
2586.173	2538.1
2589.809	2504.1
2593.443	2780.1
2597.073	2575.1
2600.701	2428.1
2604.325	2522.1
2607.946	2530.1
2611.564	2483.1
2615.178	2401.1
2618.79	2432.1
2622.398	2453.1
2626.004	2439.1
2629.606	2296.1
2633.205	2503.1
2636.801	2339.1
2640.394	2298.1
2643.983	2296.1
2647.57	2337.1
2651.153	2265.1
2654.734	2154.1
2658.311	2358.1
2661.885	2215.1
2665.456	2187.1
2669.025	2156.1
2672.589	2151.1
2676.151	2053.1
2679.71	2012.1
2683.266	2068.1
2686.819	2056.1
2690.368	2006.1
2693.915	2057.1
2697.458	2011.1
2700.999	1896.1
2704.536	1960.1
2708.071	1926.1
2711.602	1863.1
2715.13	1873.1
2718.656	1892.1
2722.178	1807.1
2725.697	1821.1
2729.214	1544.1
2732.727	1718.1
2736.237	1765.1
2739.744	1752.1
2743.249	1794.1
2746.75	1732.1
2750.248	1909.1
2753.743	1843.1
2757.236	1873.1
2760.725	1826.1
2764.211	1993.1
2767.695	1794.1
2771.175	1855.1
2774.652	1791.1
2778.127	1805.1
2781.598	1822.1
2785.067	1817.1
2788.532	1794.1
2791.995	1768.1
2795.455	1822.1
2798.911	1778.1
2802.365	1882.1
2805.816	1797.1
2809.264	1771.1
2812.709	1852.1
2816.151	1772.1
2819.59	1885.1
2823.026	1911.1
2826.46	1872.1
2829.89	1878.1
2833.318	2076.1
2836.742	1904.1
2840.164	1895.1
2843.583	1941.1
2846.999	1972.1
2850.412	1930.1
2853.822	2024.1
2857.229	1840.1
2860.634	1946.1
2864.035	2026.1
2867.434	1945.1
2870.83	1887.1
2874.223	2089.1
2877.613	1897.1
2881	2179.1
2884.385	2215.1
2887.766	2114.1
2891.145	2119.1
2894.521	2211.1
2897.894	2241.1
2901.264	1955.1
2904.631	2228.1
2907.996	2180.1
2911.358	2174.1
2914.717	2198.1
2918.073	2198.1
2921.426	2186.1
2924.777	2292.1
2928.124	2299.1
2931.469	2195.1
2934.811	2419.1
2938.15	2304.1
2941.487	2324.1
2944.821	2249.1
2948.152	2386.1
2951.48	2371.1
2954.805	2288.1
2958.128	2305.1
2961.447	2338.1
2964.765	2314.1
2968.079	2394.1
2971.39	2369.1
2974.699	2342.1
2978.005	2413.1
2981.308	2478.1
2984.609	2512.1
2987.907	2430.1
2991.202	2604.1
2994.494	2555.1
2997.784	2211.1
3001.07	2566.1
3004.355	2603.1
3007.636	2620.1
3010.915	2737.1
3014.191	2748.1
3017.464	2722.1
3020.734	2703.1
3024.002	2864.1
3027.267	2856.1
3030.53	2903.1
3033.789	2937.1
3037.046	3035.1
3040.301	3048.1
3043.552	3099.1
3046.801	3252.1
3050.048	3079.1
3053.291	3032.1
3056.532	3260.1
3059.771	3359.1
3063.006	3347.1
3066.239	3409.1
3069.469	3535.1
3072.697	3711.1
3075.922	3788.1
3079.144	3777.1
3082.364	3879.1
3085.581	4119.1
3088.795	3897.1
3092.007	4182.1
3095.216	4395.1
3098.423	4561.1
3101.627	4672.1
3104.828	4687.1
3108.026	4787.1
3111.222	4831.1
3114.416	4850.1
3117.607	5077.1
3120.795	5129.1
3123.98	5244.1
3127.163	5391.1
3130.344	5421.1
3133.521	5511.1
3136.696	5610.1
3139.869	5695.1
3143.039	5847.1
3146.206	5882.1
3149.371	6005.1
3152.533	6101.1
3155.693	6194.1
3158.85	6253.1
3162.005	6383.1
3165.157	6473.1
3168.306	6474.1
3171.453	6371.1
3174.597	6585.1
3177.739	6623.1
3180.878	6489.1
3184.014	6544.1
3187.149	6597.1
3190.28	6588.1
3193.409	6499.1
3196.536	6497.1
3199.659	6496.1
3202.781	6441.1
3205.9	6565.1
3209.016	6519.1
3212.13	6498.1
3215.241	6450.1
3218.35	6542.1
3221.456	6638.1
3224.56	6706.1
3227.661	6626.1
3230.76	6703.1
3233.856	6631.1
3236.95	6586.1
3240.041	6686.1
3243.13	6454.1
3246.216	6484.1
3249.3	6332.1
3252.382	6366.1
3255.46	6413.1
3258.537	5604.1
3261.611	6368.1
3264.682	6218.1
3267.751	6118.1
3270.818	6195.1
3273.882	5991.1
3276.943	5990.1
3280.002	5926.1
3283.059	5928.1
3286.113	5930.1
3289.165	5988.1
3292.214	5868.1
3295.261	5741.1
3298.306	5842.1
3301.348	5645.1
3304.387	5592.1
3307.425	5584.1
3310.459	5523.1
3313.492	5315.1
3316.521	5332.1
3319.549	5224.1
3322.574	5207.1
3325.597	5086.1
3328.617	5116.1
3331.635	4887.1
3334.65	5021.1
3337.663	4984.1
3340.674	4871.1
3343.682	4839.1
3346.688	4782.1
3349.691	4784.1
3352.692	4872.1
3355.691	4760.1
3358.687	4725.1
3361.681	4694.1
3364.673	4684.1
3367.662	4670.1
3370.649	4636.1
3373.633	4682.1
3376.615	4641.1
3379.595	4748.1
3382.572	4631.1
3385.547	4487.1
3388.52	4513.1
3391.49	4428.1
3394.458	4432.1
3397.424	4200.1
3400.387	4296.1
3403.348	4000.1
3406.307	4046.1
3409.263	4100.1
3412.217	3915.1
3415.168	3993.1
3418.118	3939.1
3421.065	3847.1
3424.009	3725.1
3426.951	3805.1
3429.891	3583.1
3432.829	3677.1
3435.764	3696.1
3438.697	3615.1
3441.628	3436.1
3444.557	3542.1
3447.483	3489.1
3450.407	3239.1
3453.328	3182.1
3456.247	3348.1
3459.164	3298.1
3462.079	3006.1
3464.991	3002.1
3467.902	3062.1
3470.809	2873.1
3473.715	2780.1
3476.618	2613.1
3479.519	2586.1
3482.418	2675.1
3485.315	2513.1
3488.209	2389.1
3491.101	2424.1
3493.99	2407.1
3496.878	2011.1
3499.763	2121.1
3502.646	2134.1
3505.527	2208.1
3508.405	1995.1
3511.281	1961.1
3514.155	1983.1
3517.027	1785.1
3519.897	2054.1
3522.764	1721.1
3525.629	1799.1
3528.492	1740.1
3531.352	1537.1
3534.211	1551.1
3537.067	1568.1
3539.921	1453.1
3542.773	1411.1
3545.622	1362.1
3548.469	1401.1
3551.315	1284.1
3554.157	1144.1
3556.998	1161.1
3559.837	1046.1
3562.673	952.1
3565.507	1104.1
3568.339	977.1
3571.169	970.1
3573.996	958.1
3576.822	953.1
3579.645	1093.1
3582.466	880.1
3585.285	779.1
3588.101	737.1
3590.916	791.1
3593.728	710.1
3596.538	787.1
3599.346	667.1
3602.152	716.1
3604.956	667.1
3607.757	553.1
3610.556	675.1
3613.354	585.1
3616.149	541.1
3618.942	516.1
3621.732	320.1
3624.521	549.1
3627.307	459.1
3630.092	484.1
3632.874	387.1
3635.654	453.1
3638.432	507.1
3641.208	375.1
3643.982	358.1
3646.753	292.1
3649.523	367.1
3652.29	417.1
3655.055	325.1
3657.818	249.1
3660.579	361.1
3663.338	408.1
3666.095	218.1
3668.849	390.1
3671.602	241.1
3674.352	327.1
3677.101	242.1
3679.847	138.1
3682.591	240.1
3685.333	258.1
3688.073	162.1
3690.811	225.1
3693.547	227.1
3696.281	227.1
3699.013	107.1
3701.742	147.1
3704.47	253.1
3707.195	117.1
3709.919	158.1
3712.64	99.1
3715.359	-10.9
3718.076	-9.9
3720.792	97.1
3723.505	133.1
3726.216	81.1
3728.925	110.1
3731.632	-107.9
3734.336	134.1
3737.039	75.1
3739.74	62.1
3742.439	307.1
3745.136	63.1
3747.83	-13.9
3750.523	62.1
3753.213	-182.9
3755.902	30.1
3758.589	160.1
3761.273	148.1
3763.956	-73.9
3766.636	87.1
3769.315	-87.9
3771.991	140.1
3774.665	-23.9
3777.338	167.1
3780.008	59.1
3782.677	16.1
3785.343	156.1
3788.007	110.1
3790.67	-16.9
3793.33	-36.9
3795.989	146.1
3798.645	19.1
3801.299	120.1
3803.952	-10.9
3806.602	-23.9
3809.251	9.1
3811.897	56.1
3814.542	47.1
3817.184	24.1
3819.825	64.1
3822.463	-91.9
3825.1	6.1
3827.735	92.1
3830.367	1.1
3832.998	-62.9
3835.627	-48.9
3838.253	-38.9
3840.878	-12.9
3843.501	-112.9
3846.122	-54.9
3848.741	-153.9
3851.358	-32.9
3853.973	135.1
3856.586	-12.9
3859.197	-29.9
3861.806	-32.9
3864.414	112.1
3867.019	-15.9
3869.622	-104.9
3872.224	-137.9
3874.823	47.1
3877.421	29.1
3880.016	67.1
3882.61	160.1
3885.202	118.1
3887.792	116.1
3890.38	-60.9
3892.966	1.1
3895.55	8.1
3898.132	-29.9
3900.713	-47.9
3903.291	-38.9
3905.868	-122.9
3908.442	-119.9
3911.015	-34.9
3913.586	-48.9
3916.155	-52.9
3918.722	-17.9
3921.287	-66.9
3923.85	-148.9
3926.411	-61.9
3928.971	-81.9
3931.528	-47.9
3934.084	-98.9
3936.638	-1.9
3939.19	-126.9
3941.74	-18.9
3944.288	-85.9
3946.834	-11.9
3949.378	-77.9
3951.921	39.1
3954.462	-25.9
3957	-94.9
3959.537	-25.9
3962.072	49.1
3964.606	113.1
3967.137	-32.9
3969.667	-7.9
3972.194	-16.9
3974.72	0.1
3977.244	18.1
3979.766	-22.9
3982.286	83.1
3984.805	-109.9
3987.321	-118.9
3989.836	-85.9
3992.349	-13.9
3994.86	-26.9
3997.369	-57.9
3999.877	-40.9
4002.382	-70.9
4004.886	-46.9
4007.388	69.1
4009.888	73.1
4012.386	-12.9
4014.883	-34.9
4017.377	-35.9
4019.87	-157.9
4022.361	19.1
4024.85	40.1
4027.338	114.1
4029.823	-55.9
4032.307	-50.9
4034.789	15.1
4037.269	44.1
4039.747	35.1
4042.224	-32.9
4044.699	-13.9
4047.172	-50.9
4049.643	-86.9
4052.112	93.1
4054.58	7.1
4057.046	43.1
4059.51	18.1
4061.972	-47.9
4064.432	79.1
4066.891	-100.9
4069.348	16.1
4071.803	-66.9
4074.256	-40.9
4076.708	44.1
4079.158	-83.9
4081.606	-99.9
4084.052	9.1
4086.497	-115.9
4088.939	7.1
4091.38	-35.9
4093.819	-43.9
4096.257	-1127.9
4098.693	-1103.9
4101.127	-1146.9
4103.559	-1179.9
4105.989	96.1
4108.418	121.1
4110.845	356.1
4113.27	204.1
4115.694	392.1
4118.115	364.1
4120.535	-80.9
4122.954	-173.9
4125.37	-106.9
4127.785	-22.9
4130.198	-69.9
4132.609	-100.9
4135.019	-1216.9
4137.427	-1162.9
4139.833	-1125.9
4142.237	-1008.9
