Data from 2018-2-8_conc=5_RamanShift_22.txt Node
Date: Wed Feb 07 11:14:40 IST 2018
User: aro
Spectrometer: QEPB0276
Trigger mode: 0
Integration Time (sec): 3.000000E1
Scans to average: 1
Electric dark correction enabled: true
Nonlinearity correction enabled: false
Boxcar width: 0
XAxis mode: Raman Shifts
Number of Pixels in Spectrum: 1044
>>>>>Begin Spectral Data<<<<<
160.701	678.1
166.742	784.1
172.777	1255.1
178.805	2862.1
184.826	6234.1
190.841	12096.1
196.849	19393.1
202.85	24686.1
208.845	26707.1
214.833	26405.1
220.815	26072.1
226.789	24682.1
232.758	25805.1
238.719	25729.1
244.674	25494.1
250.623	24997.1
256.565	24531.1
262.5	24120.1
268.429	23405.1
274.351	23169.1
280.267	23117.1
286.176	22481.1
292.079	22193.1
297.975	21824.1
303.865	21712.1
309.748	21605.1
315.625	21440.1
321.495	20928.1
327.359	21045.1
333.217	21023.1
339.068	21002.1
344.912	21006.1
350.751	20979.1
356.583	20705.1
362.408	20825.1
368.227	20810.1
374.04	21037.1
379.847	20976.1
385.647	21135.1
391.44	21440.1
397.228	21277.1
403.009	21565.1
408.784	21509.1
414.553	21753.1
420.315	21783.1
426.071	21935.1
431.821	21806.1
437.565	21788.1
443.302	21618.1
449.033	21639.1
454.758	21520.1
460.477	21374.1
466.189	21355.1
471.896	21158.1
477.596	21035.1
483.29	21223.1
488.978	21089.1
494.66	21076.1
500.335	21020.1
506.005	20993.1
511.668	20691.1
517.325	20609.1
522.977	20361.1
528.622	20326.1
534.261	20144.1
539.894	20099.1
545.521	20079.1
551.141	19940.1
556.756	19753.1
562.365	19549.1
567.968	19487.1
573.565	19313.1
579.155	19150.1
584.74	19051.1
590.319	18946.1
595.892	18929.1
601.459	18864.1
607.02	18891.1
612.575	18907.1
618.124	18791.1
623.667	18898.1
629.204	18838.1
634.735	18864.1
640.261	18751.1
645.781	18982.1
651.294	18604.1
656.802	18424.1
662.304	18315.1
667.8	18058.1
673.29	18122.1
678.775	17954.1
684.254	17914.1
689.726	18038.1
695.193	17887.1
700.655	17894.1
706.11	17971.1
711.56	17847.1
717.004	17909.1
722.442	18145.1
727.874	17928.1
733.301	17913.1
738.722	17920.1
744.137	17759.1
749.547	17691.1
754.951	17582.1
760.349	17494.1
765.741	17303.1
771.128	17266.1
776.509	17275.1
781.885	17296.1
787.254	17159.1
792.618	17353.1
797.977	17410.1
803.33	17501.1
808.677	17497.1
814.019	17433.1
819.355	17517.1
824.686	17504.1
830.011	17476.1
835.33	17165.1
840.644	16958.1
845.952	17101.1
851.255	16696.1
856.552	16736.1
861.844	16593.1
867.13	16429.1
872.41	16582.1
877.686	16380.1
882.955	16468.1
888.219	16529.1
893.478	16700.1
898.731	16454.1
903.979	16444.1
909.221	16547.1
914.458	16392.1
919.69	16203.1
924.916	16047.1
930.136	15955.1
935.351	15796.1
940.561	15605.1
945.766	15511.1
950.965	15310.1
956.158	15466.1
961.347	15494.1
966.529	15443.1
971.707	15446.1
976.879	15501.1
982.046	15511.1
987.208	15545.1
992.364	15353.1
997.515	15371.1
1002.66	15126.1
1007.801	15312.1
1012.936	15221.1
1018.066	15350.1
1023.19	15027.1
1028.309	14998.1
1033.423	15018.1
1038.532	15175.1
1043.636	15331.1
1048.734	15362.1
1053.827	15484.1
1058.915	15469.1
1063.998	15218.1
1069.075	15057.1
1074.147	14812.1
1079.214	14879.1
1084.276	14580.1
1089.333	14482.1
1094.385	14478.1
1099.431	14716.1
1104.472	14464.1
1109.509	14594.1
1114.54	14736.1
1119.565	14798.1
1124.586	14698.1
1129.602	14734.1
1134.613	14670.1
1139.618	14593.1
1144.619	14388.1
1149.614	14116.1
1154.604	14060.1
1159.589	13942.1
1164.57	13673.1
1169.545	13814.1
1174.515	13809.1
1179.48	13925.1
1184.44	13958.1
1189.395	14102.1
1194.345	14204.1
1199.29	14132.1
1204.23	14308.1
1209.165	14111.1
1214.095	14078.1
1219.021	13987.1
1223.941	13902.1
1228.856	13988.1
1233.766	13956.1
1238.672	13756.1
1243.572	13784.1
1248.467	13789.1
1253.358	13966.1
1258.244	14007.1
1263.124	13860.1
1268	13616.1
1272.871	13709.1
1277.737	13721.1
1282.599	13490.1
1287.455	13288.1
1292.306	13037.1
1297.153	13168.1
1301.995	12887.1
1306.832	12886.1
1311.664	12896.1
1316.491	12986.1
1321.314	12929.1
1326.132	12901.1
1330.945	12815.1
1335.753	12646.1
1340.556	12573.1
1345.354	12415.1
1350.148	12046.1
1354.937	11905.1
1359.722	11950.1
1364.501	11620.1
1369.276	11451.1
1374.046	11469.1
1378.811	11622.1
1383.572	11829.1
1388.327	11476.1
1393.079	11977.1
1397.825	12069.1
1402.567	12043.1
1407.304	12018.1
1412.036	12077.1
1416.764	11840.1
1421.487	12096.1
1426.205	11853.1
1430.919	11621.1
1435.628	11529.1
1440.333	11389.1
1445.032	11312.1
1449.727	11161.1
1454.418	11292.1
1459.104	11283.1
1463.785	11061.1
1468.462	11092.1
1473.134	11048.1
1477.802	10877.1
1482.465	10992.1
1487.123	10470.1
1491.777	10594.1
1496.426	10574.1
1501.071	10340.1
1505.711	10384.1
1510.347	10347.1
1514.978	10516.1
1519.604	10588.1
1524.226	10628.1
1528.844	11052.1
1533.457	10858.1
1538.065	11041.1
1542.669	11077.1
1547.269	11139.1
1551.864	11133.1
1556.454	11310.1
1561.041	11220.1
1565.622	11160.1
1570.199	10937.1
1574.772	10898.1
1579.34	10645.1
1583.904	10834.1
1588.464	10878.1
1593.019	10815.1
1597.569	10991.1
1602.115	10822.1
1606.657	11111.1
1611.195	11070.1
1615.728	11154.1
1620.256	11268.1
1624.78	11316.1
1629.3	11301.1
1633.816	11125.1
1638.327	10993.1
1642.834	10977.1
1647.336	10959.1
1651.834	10818.1
1656.328	10853.1
1660.817	10799.1
1665.302	10881.1
1669.783	10743.1
1674.259	10451.1
1678.732	10267.1
1683.199	10075.1
1687.663	9993.1
1692.122	9595.1
1696.577	9202.1
1701.028	9197.1
1705.474	9054.1
1709.917	9077.1
1714.355	9075.1
1718.788	8957.1
1723.218	8843.1
1727.643	8679.1
1732.064	8529.1
1736.481	8612.1
1740.893	8348.1
1745.301	8173.1
1749.705	8282.1
1754.105	7909.1
1758.501	7879.1
1762.893	7556.1
1767.28	7535.1
1771.663	7238.1
1776.042	7078.1
1780.417	6968.1
1784.787	6725.1
1789.154	6786.1
1793.516	6881.1
1797.874	6900.1
1802.228	7052.1
1806.578	7295.1
1810.924	7082.1
1815.266	7699.1
1819.603	7236.1
1823.937	7237.1
1828.266	7142.1
1832.591	7099.1
1836.913	6980.1
1841.23	7050.1
1845.543	7032.1
1849.852	6823.1
1854.156	6860.1
1858.457	6776.1
1862.754	6491.1
1867.047	6645.1
1871.335	6467.1
1875.62	6445.1
1879.9	6507.1
1884.177	6613.1
1888.449	6420.1
1892.718	6503.1
1896.982	6361.1
1901.243	6560.1
1905.499	6413.1
1909.752	6350.1
1914	6560.1
1918.245	6295.1
1922.485	6344.1
1926.722	6326.1
1930.954	6393.1
1935.183	6429.1
1939.408	6362.1
1943.628	6438.1
1947.845	6418.1
1952.058	6452.1
1956.267	6466.1
1960.472	6349.1
1964.673	6404.1
1968.87	6455.1
1973.063	6495.1
1977.252	6321.1
1981.438	6297.1
1985.619	6195.1
1989.797	6140.1
1993.971	6111.1
1998.14	5835.1
2002.306	5940.1
2006.469	5947.1
2010.627	5895.1
2014.781	5874.1
2018.932	5948.1
2023.078	5640.1
2027.221	5700.1
2031.36	5718.1
2035.495	5672.1
2039.627	5707.1
2043.754	5672.1
2047.878	5589.1
2051.998	5561.1
2056.114	5578.1
2060.226	5527.1
2064.334	5444.1
2068.439	5326.1
2072.54	5322.1
2076.637	5557.1
2080.73	5491.1
2084.82	5370.1
2088.906	5452.1
2092.988	5356.1
2097.066	5548.1
2101.14	5363.1
2105.211	5508.1
2109.278	5462.1
2113.342	5520.1
2117.401	5637.1
2121.457	5502.1
2125.509	5492.1
2129.558	5239.1
2133.602	5396.1
2137.643	5326.1
2141.681	5253.1
2145.714	5199.1
2149.744	5118.1
2153.77	5186.1
2157.793	5116.1
2161.812	5304.1
2165.827	5247.1
2169.838	4887.1
2173.846	5016.1
2177.851	4998.1
2181.851	4882.1
2185.848	4928.1
2189.841	4740.1
2193.831	4886.1
2197.817	4650.1
2201.799	4674.1
2205.778	4724.1
2209.753	4723.1
2213.725	4635.1
2217.693	4630.1
2221.657	4645.1
2225.618	4483.1
2229.575	4547.1
2233.529	4458.1
2237.479	4486.1
2241.425	4502.1
2245.368	4602.1
2249.307	4441.1
2253.243	4459.1
2257.175	4484.1
2261.104	4363.1
2265.029	4275.1
2268.95	4265.1
2272.868	4130.1
2276.783	4213.1
2280.694	3963.1
2284.601	4004.1
2288.505	3959.1
2292.405	3876.1
2296.302	4053.1
2300.195	3783.1
2304.085	3993.1
2307.971	3801.1
2311.854	3880.1
2315.734	3761.1
2319.609	3843.1
2323.482	3947.1
2327.351	3820.1
2331.216	3804.1
2335.078	3728.1
2338.937	3726.1
2342.792	3733.1
2346.643	3688.1
2350.492	3727.1
2354.336	3722.1
2358.178	3567.1
2362.015	3597.1
2365.85	3846.1
2369.681	3721.1
2373.508	3680.1
2377.333	3534.1
2381.153	3732.1
2384.971	3712.1
2388.785	3676.1
2392.595	3703.1
2396.402	3756.1
2400.206	3838.1
2404.007	3828.1
2407.804	3628.1
2411.597	3603.1
2415.388	3635.1
2419.174	3566.1
2422.958	3519.1
2426.738	3501.1
2430.515	3397.1
2434.289	3536.1
2438.059	3511.1
2441.825	3535.1
2445.589	3285.1
2449.349	3491.1
2453.106	3390.1
2456.859	3372.1
2460.61	3276.1
2464.356	3314.1
2468.1	3258.1
2471.84	3317.1
2475.577	3304.1
2479.311	3232.1
2483.041	3137.1
2486.768	3088.1
2490.492	2906.1
2494.213	3138.1
2497.93	3210.1
2501.644	3161.1
2505.355	3216.1
2509.062	3112.1
2512.766	3162.1
2516.467	2989.1
2520.165	3082.1
2523.859	3186.1
2527.551	2883.1
2531.239	3089.1
2534.923	3118.1
2538.605	3107.1
2542.283	3006.1
2545.958	2995.1
2549.63	2900.1
2553.299	2868.1
2556.964	2802.1
2560.626	2944.1
2564.285	2861.1
2567.941	2968.1
2571.594	2924.1
2575.243	2841.1
2578.89	3017.1
2582.533	2971.1
2586.173	2906.1
2589.809	2836.1
2593.443	3103.1
2597.073	2947.1
2600.701	2748.1
2604.325	2861.1
2607.946	2837.1
2611.564	2796.1
2615.178	2689.1
2618.79	2715.1
2622.398	2835.1
2626.004	2819.1
2629.606	2668.1
2633.205	2881.1
2636.801	2649.1
2640.394	2648.1
2643.983	2652.1
2647.57	2691.1
2651.153	2571.1
2654.734	2470.1
2658.311	2755.1
2661.885	2607.1
2665.456	2694.1
2669.025	2524.1
2672.589	2526.1
2676.151	2385.1
2679.71	2378.1
2683.266	2476.1
2686.819	2366.1
2690.368	2336.1
2693.915	2179.1
2697.458	2366.1
2700.999	2222.1
2704.536	2210.1
2708.071	2179.1
2711.602	2203.1
2715.13	2194.1
2718.656	2198.1
2722.178	2122.1
2725.697	2227.1
2729.214	1889.1
2732.727	1985.1
2736.237	2038.1
2739.744	1992.1
2743.249	2077.1
2746.75	2076.1
2750.248	2197.1
2753.743	2098.1
2757.236	2128.1
2760.725	2073.1
2764.211	2243.1
2767.695	2187.1
2771.175	2125.1
2774.652	2098.1
2778.127	2078.1
2781.598	2016.1
2785.067	2101.1
2788.532	2154.1
2791.995	2069.1
2795.455	2086.1
2798.911	2029.1
2802.365	2212.1
2805.816	2101.1
2809.264	2042.1
2812.709	2150.1
2816.151	2075.1
2819.59	2289.1
2823.026	2201.1
2826.46	2239.1
2829.89	2210.1
2833.318	2416.1
2836.742	2128.1
2840.164	2201.1
2843.583	2285.1
2846.999	2227.1
2850.412	2230.1
2853.822	2546.1
2857.229	2153.1
2860.634	2245.1
2864.035	2335.1
2867.434	2175.1
2870.83	2276.1
2874.223	2334.1
2877.613	2244.1
2881	2435.1
2884.385	2547.1
2887.766	2418.1
2891.145	2443.1
2894.521	2506.1
2897.894	2586.1
2901.264	2260.1
2904.631	2559.1
2907.996	2536.1
2911.358	2523.1
2914.717	2524.1
2918.073	2531.1
2921.426	2503.1
2924.777	2654.1
2928.124	2659.1
2931.469	2557.1
2934.811	2840.1
2938.15	2645.1
2941.487	2705.1
2944.821	2402.1
2948.152	2770.1
2951.48	2710.1
2954.805	2661.1
2958.128	2579.1
2961.447	2708.1
2964.765	2593.1
2968.079	2746.1
2971.39	2664.1
2974.699	2774.1
2978.005	2700.1
2981.308	2751.1
2984.609	2896.1
2987.907	2802.1
2991.202	2928.1
2994.494	2947.1
2997.784	2600.1
3001.07	2859.1
3004.355	2952.1
3007.636	3018.1
3010.915	3062.1
3014.191	3064.1
3017.464	3106.1
3020.734	3067.1
3024.002	3254.1
3027.267	3276.1
3030.53	3264.1
3033.789	3348.1
3037.046	3421.1
3040.301	3448.1
3043.552	3505.1
3046.801	3496.1
3050.048	3474.1
3053.291	3415.1
3056.532	3578.1
3059.771	3804.1
3063.006	3818.1
3066.239	3830.1
3069.469	3934.1
3072.697	4190.1
3075.922	4240.1
3079.144	4250.1
3082.364	4292.1
3085.581	4537.1
3088.795	4347.1
3092.007	4609.1
3095.216	4844.1
3098.423	5080.1
3101.627	5208.1
3104.828	5196.1
3108.026	5391.1
3111.222	5394.1
3114.416	5330.1
3117.607	5615.1
3120.795	5639.1
3123.98	5748.1
3127.163	5980.1
3130.344	5979.1
3133.521	6147.1
3136.696	6209.1
3139.869	6226.1
3143.039	6398.1
3146.206	6359.1
3149.371	6564.1
3152.533	6725.1
3155.693	6859.1
3158.85	6903.1
3162.005	6946.1
3165.157	7105.1
3168.306	7091.1
3171.453	7011.1
3174.597	7325.1
3177.739	7253.1
3180.878	7148.1
3184.014	7110.1
3187.149	7198.1
3190.28	7107.1
3193.409	7134.1
3196.536	7060.1
3199.659	7086.1
3202.781	7064.1
3205.9	7202.1
3209.016	7115.1
3212.13	7111.1
3215.241	6979.1
3218.35	7060.1
3221.456	7118.1
3224.56	7284.1
3227.661	7253.1
3230.76	7330.1
3233.856	7275.1
3236.95	7085.1
3240.041	7251.1
3243.13	7012.1
3246.216	7097.1
3249.3	6946.1
3252.382	6869.1
3255.46	7034.1
3258.537	7392.1
3261.611	6930.1
3264.682	6714.1
3267.751	6734.1
3270.818	6801.1
3273.882	6587.1
3276.943	6536.1
3280.002	6435.1
3283.059	6514.1
3286.113	6545.1
3289.165	6600.1
3292.214	6463.1
3295.261	6228.1
3298.306	6458.1
3301.348	6179.1
3304.387	6207.1
3307.425	6139.1
3310.459	6092.1
3313.492	5864.1
3316.521	5824.1
3319.549	5764.1
3322.574	5669.1
3325.597	5566.1
3328.617	5627.1
3331.635	5472.1
3334.65	5552.1
3337.663	5401.1
3340.674	5427.1
3343.682	5259.1
3346.688	5388.1
3349.691	5317.1
3352.692	5424.1
3355.691	5168.1
3358.687	5251.1
3361.681	5189.1
3364.673	5207.1
3367.662	5160.1
3370.649	5058.1
3373.633	5261.1
3376.615	5107.1
3379.595	5224.1
3382.572	5043.1
3385.547	4972.1
3388.52	5063.1
3391.49	4960.1
3394.458	4868.1
3397.424	4704.1
3400.387	4905.1
3403.348	4486.1
3406.307	4495.1
3409.263	4570.1
3412.217	4357.1
3415.168	4396.1
3418.118	4305.1
3421.065	4298.1
3424.009	4100.1
3426.951	4224.1
3429.891	4157.1
3432.829	4103.1
3435.764	4065.1
3438.697	4050.1
3441.628	3746.1
3444.557	3890.1
3447.483	3945.1
3450.407	3669.1
3453.328	3523.1
3456.247	3674.1
3459.164	3631.1
3462.079	3375.1
3464.991	3363.1
3467.902	3282.1
3470.809	3275.1
3473.715	3093.1
3476.618	3059.1
3479.519	2911.1
3482.418	3123.1
3485.315	2865.1
3488.209	2754.1
3491.101	2575.1
3493.99	2719.1
3496.878	2388.1
3499.763	2462.1
3502.646	2314.1
3505.527	2478.1
3508.405	2343.1
3511.281	2274.1
3514.155	2252.1
3517.027	2215.1
3519.897	2319.1
3522.764	2046.1
3525.629	2186.1
3528.492	1999.1
3531.352	1824.1
3534.211	1805.1
3537.067	1945.1
3539.921	1790.1
3542.773	1680.1
3545.622	1674.1
3548.469	1763.1
3551.315	1651.1
3554.157	1528.1
3556.998	1487.1
3559.837	1289.1
3562.673	1283.1
3565.507	1344.1
3568.339	1205.1
3571.169	1258.1
3573.996	1220.1
3576.822	1226.1
3579.645	1189.1
3582.466	1087.1
3585.285	1066.1
3588.101	978.1
3590.916	1083.1
3593.728	935.1
3596.538	1046.1
3599.346	890.1
3602.152	981.1
3604.956	942.1
3607.757	725.1
3610.556	983.1
3613.354	795.1
3616.149	716.1
3618.942	752.1
3621.732	539.1
3624.521	834.1
3627.307	727.1
3630.092	705.1
3632.874	537.1
3635.654	673.1
3638.432	776.1
3641.208	636.1
3643.982	634.1
3646.753	504.1
3649.523	644.1
3652.29	607.1
3655.055	534.1
3657.818	426.1
3660.579	414.1
3663.338	683.1
3666.095	422.1
3668.849	583.1
3671.602	458.1
3674.352	618.1
3677.101	448.1
3679.847	333.1
3682.591	538.1
3685.333	484.1
3688.073	353.1
3690.811	480.1
3693.547	306.1
3696.281	411.1
3699.013	270.1
3701.742	334.1
3704.47	472.1
3707.195	288.1
3709.919	351.1
3712.64	353.1
3715.359	223.1
3718.076	96.1
3720.792	415.1
3723.505	308.1
3726.216	175.1
3728.925	371.1
3731.632	158.1
3734.336	376.1
3737.039	313.1
3739.74	323.1
3742.439	393.1
3745.136	294.1
3747.83	280.1
3750.523	242.1
3753.213	483.1
3755.902	238.1
3758.589	395.1
3761.273	322.1
3763.956	129.1
3766.636	337.1
3769.315	14.1
3771.991	326.1
3774.665	244.1
3777.338	376.1
3780.008	318.1
3782.677	72.1
3785.343	365.1
3788.007	582.1
3790.67	189.1
3793.33	229.1
3795.989	360.1
3798.645	169.1
3801.299	371.1
3803.952	135.1
3806.602	179.1
3809.251	254.1
3811.897	282.1
3814.542	265.1
3817.184	269.1
3819.825	275.1
3822.463	-82.9
3825.1	211.1
3827.735	210.1
3830.367	273.1
3832.998	79.1
3835.627	129.1
3838.253	111.1
3840.878	55.1
3843.501	70.1
3846.122	81.1
3848.741	11.1
3851.358	166.1
3853.973	383.1
3856.586	172.1
3859.197	192.1
3861.806	176.1
3864.414	283.1
3867.019	264.1
3869.622	118.1
3872.224	119.1
3874.823	289.1
3877.421	249.1
3880.016	309.1
3882.61	363.1
3885.202	345.1
3887.792	369.1
3890.38	174.1
3892.966	275.1
3895.55	218.1
3898.132	205.1
3900.713	100.1
3903.291	226.1
3905.868	243.1
3908.442	168.1
3911.015	133.1
3913.586	207.1
3916.155	169.1
3918.722	275.1
3921.287	171.1
3923.85	108.1
3926.411	89.1
3928.971	98.1
3931.528	161.1
3934.084	150.1
3936.638	188.1
3939.19	119.1
3941.74	186.1
3944.288	101.1
3946.834	233.1
3949.378	79.1
3951.921	268.1
3954.462	187.1
3957	164.1
3959.537	209.1
3962.072	296.1
3964.606	322.1
3967.137	39.1
3969.667	167.1
3972.194	200.1
3974.72	227.1
3977.244	259.1
3979.766	125.1
3982.286	283.1
3984.805	148.1
3987.321	78.1
3989.836	87.1
3992.349	250.1
3994.86	185.1
3997.369	171.1
3999.877	156.1
4002.382	167.1
4004.886	217.1
4007.388	229.1
4009.888	286.1
4012.386	160.1
4014.883	123.1
4017.377	206.1
4019.87	58.1
4022.361	226.1
4024.85	337.1
4027.338	158.1
4029.823	87.1
4032.307	154.1
4034.789	216.1
4037.269	248.1
4039.747	266.1
4042.224	138.1
4044.699	235.1
4047.172	243.1
4049.643	103.1
4052.112	241.1
4054.58	217.1
4057.046	208.1
4059.51	202.1
4061.972	126.1
4064.432	344.1
4066.891	111.1
4069.348	284.1
4071.803	104.1
4074.256	179.1
4076.708	168.1
4079.158	252.1
4081.606	39.1
4084.052	242.1
4086.497	122.1
4088.939	268.1
4091.38	248.1
4093.819	145.1
4096.257	-1483.9
4098.693	-1433.9
4101.127	-1466.9
4103.559	-1460.9
4105.989	358.1
4108.418	383.1
4110.845	625.1
4113.27	424.1
4115.694	551.1
4118.115	600.1
4120.535	97.1
4122.954	57.1
4125.37	-21.9
4127.785	107.1
4130.198	98.1
4132.609	119.1
4135.019	-1510.9
4137.427	-1440.9
4139.833	-1427.9
4142.237	-1199.9
