Data from 2018-2-8_conc=2_RamanShift_18.txt Node
Date: Wed Feb 07 10:03:10 IST 2018
User: aro
Spectrometer: QEPB0276
Trigger mode: 0
Integration Time (sec): 3.000000E1
Scans to average: 1
Electric dark correction enabled: true
Nonlinearity correction enabled: false
Boxcar width: 0
XAxis mode: Raman Shifts
Number of Pixels in Spectrum: 1044
>>>>>Begin Spectral Data<<<<<
160.701	409.2
166.742	560.2
172.777	1048.2
178.805	2654.2
184.826	6110.2
190.841	12205.2
196.849	19543.2
202.85	24916.2
208.845	26970.2
214.833	26714.2
220.815	26291.2
226.789	24914.2
232.758	26034.2
238.719	25849.2
244.674	25673.2
250.623	25096.2
256.565	24707.2
262.5	24197.2
268.429	23589.2
274.351	23336.2
280.267	23074.2
286.176	22521.2
292.079	22271.2
297.975	21961.2
303.865	21773.2
309.748	21586.2
315.625	21346.2
321.495	20991.2
327.359	20952.2
333.217	21013.2
339.068	20961.2
344.912	20967.2
350.751	20883.2
356.583	20927.2
362.408	20869.2
368.227	20900.2
374.04	20930.2
379.847	21044.2
385.647	21180.2
391.44	21400.2
397.228	21419.2
403.009	21603.2
408.784	21704.2
414.553	21758.2
420.315	21859.2
426.071	21982.2
431.821	21896.2
437.565	21829.2
443.302	21687.2
449.033	21739.2
454.758	21514.2
460.477	21365.2
466.189	21253.2
471.896	21258.2
477.596	21075.2
483.29	21135.2
488.978	21159.2
494.66	21078.2
500.335	21079.2
506.005	20876.2
511.668	20652.2
517.325	20537.2
522.977	20413.2
528.622	20352.2
534.261	20177.2
539.894	20086.2
545.521	20024.2
551.141	19951.2
556.756	19671.2
562.365	19558.2
567.968	19413.2
573.565	19279.2
579.155	19104.2
584.74	19007.2
590.319	18953.2
595.892	18879.2
601.459	18892.2
607.02	18923.2
612.575	18967.2
618.124	18816.2
623.667	18882.2
629.204	18824.2
634.735	18923.2
640.261	18726.2
645.781	18890.2
651.294	18571.2
656.802	18385.2
662.304	18334.2
667.8	18052.2
673.29	18039.2
678.775	17953.2
684.254	17978.2
689.726	17975.2
695.193	17723.2
700.655	17765.2
706.11	17942.2
711.56	17836.2
717.004	17860.2
722.442	17758.2
727.874	17783.2
733.301	17817.2
738.722	17864.2
744.137	17626.2
749.547	17603.2
754.951	17492.2
760.349	17349.2
765.741	17164.2
771.128	17249.2
776.509	17244.2
781.885	17095.2
787.254	17144.2
792.618	17269.2
797.977	17359.2
803.33	17346.2
808.677	17460.2
814.019	17345.2
819.355	17311.2
824.686	17342.2
830.011	17323.2
835.33	17121.2
840.644	16902.2
845.952	16951.2
851.255	16641.2
856.552	16577.2
861.844	16459.2
867.13	16384.2
872.41	16399.2
877.686	16317.2
882.955	16368.2
888.219	16417.2
893.478	16547.2
898.731	16406.2
903.979	16355.2
909.221	16352.2
914.458	16336.2
919.69	15994.2
924.916	16035.2
930.136	15724.2
935.351	15708.2
940.561	15425.2
945.766	15347.2
950.965	15232.2
956.158	15258.2
961.347	15411.2
966.529	15341.2
971.707	15269.2
976.879	15239.2
982.046	15378.2
987.208	15411.2
992.364	15190.2
997.515	15207.2
1002.66	15011.2
1007.801	15164.2
1012.936	14987.2
1018.066	14995.2
1023.19	14971.2
1028.309	14873.2
1033.423	14963.2
1038.532	15072.2
1043.636	15212.2
1048.734	15135.2
1053.827	15231.2
1058.915	15309.2
1063.998	15086.2
1069.075	14942.2
1074.147	14734.2
1079.214	14646.2
1084.276	14420.2
1089.333	14395.2
1094.385	14285.2
1099.431	14579.2
1104.472	14304.2
1109.509	14515.2
1114.54	14534.2
1119.565	14622.2
1124.586	14537.2
1129.602	14633.2
1134.613	14533.2
1139.618	14377.2
1144.619	14182.2
1149.614	13920.2
1154.604	13831.2
1159.589	13796.2
1164.57	13582.2
1169.545	13593.2
1174.515	13703.2
1179.48	13756.2
1184.44	13767.2
1189.395	13913.2
1194.345	14167.2
1199.29	14020.2
1204.23	14141.2
1209.165	14047.2
1214.095	13901.2
1219.021	13740.2
1223.941	13681.2
1228.856	13751.2
1233.766	13754.2
1238.672	13637.2
1243.572	13613.2
1248.467	13629.2
1253.358	13746.2
1258.244	13786.2
1263.124	13587.2
1268	13586.2
1272.871	13545.2
1277.737	13508.2
1282.599	13239.2
1287.455	13104.2
1292.306	12849.2
1297.153	12863.2
1301.995	12778.2
1306.832	12762.2
1311.664	12758.2
1316.491	12784.2
1321.314	12766.2
1326.132	12754.2
1330.945	12682.2
1335.753	12531.2
1340.556	12453.2
1345.354	12207.2
1350.148	11949.2
1354.937	11839.2
1359.722	11787.2
1364.501	11571.2
1369.276	11430.2
1374.046	11396.2
1378.811	11587.2
1383.572	11692.2
1388.327	11468.2
1393.079	11836.2
1397.825	11922.2
1402.567	11914.2
1407.304	11836.2
1412.036	11939.2
1416.764	11860.2
1421.487	11990.2
1426.205	11666.2
1430.919	11459.2
1435.628	11277.2
1440.333	11326.2
1445.032	11149.2
1449.727	11166.2
1454.418	11188.2
1459.104	11139.2
1463.785	10876.2
1468.462	10954.2
1473.134	10912.2
1477.802	10753.2
1482.465	10892.2
1487.123	10497.2
1491.777	10674.2
1496.426	10481.2
1501.071	10309.2
1505.711	10404.2
1510.347	10429.2
1514.978	10528.2
1519.604	10618.2
1524.226	10702.2
1528.844	11019.2
1533.457	10781.2
1538.065	11065.2
1542.669	11016.2
1547.269	11182.2
1551.864	11070.2
1556.454	11207.2
1561.041	11065.2
1565.622	11031.2
1570.199	10820.2
1574.772	10810.2
1579.34	10515.2
1583.904	10747.2
1588.464	10693.2
1593.019	10715.2
1597.569	10853.2
1602.115	10850.2
1606.657	10952.2
1611.195	10975.2
1615.728	11057.2
1620.256	11198.2
1624.78	11163.2
1629.3	11190.2
1633.816	10969.2
1638.327	10931.2
1642.834	10888.2
1647.336	10729.2
1651.834	10712.2
1656.328	10799.2
1660.817	10683.2
1665.302	10796.2
1669.783	10708.2
1674.259	10585.2
1678.732	10338.2
1683.199	10042.2
1687.663	9903.2
1692.122	9443.2
1696.577	9281.2
1701.028	9255.2
1705.474	9147.2
1709.917	9170.2
1714.355	9139.2
1718.788	9007.2
1723.218	8904.2
1727.643	8594.2
1732.064	8462.2
1736.481	8483.2
1740.893	8353.2
1745.301	8210.2
1749.705	8193.2
1754.105	7823.2
1758.501	7743.2
1762.893	7403.2
1767.28	7405.2
1771.663	7216.2
1776.042	7006.2
1780.417	6912.2
1784.787	6785.2
1789.154	6751.2
1793.516	6722.2
1797.874	7012.2
1802.228	7086.2
1806.578	7206.2
1810.924	7140.2
1815.266	7442.2
1819.603	7228.2
1823.937	7222.2
1828.266	7095.2
1832.591	7117.2
1836.913	6959.2
1841.23	6995.2
1845.543	6931.2
1849.852	6749.2
1854.156	6818.2
1858.457	6721.2
1862.754	6421.2
1867.047	6553.2
1871.335	6510.2
1875.62	6435.2
1879.9	6382.2
1884.177	6522.2
1888.449	6434.2
1892.718	6460.2
1896.982	6376.2
1901.243	6540.2
1905.499	6442.2
1909.752	6448.2
1914	6459.2
1918.245	6351.2
1922.485	6398.2
1926.722	6425.2
1930.954	6474.2
1935.183	6451.2
1939.408	6439.2
1943.628	6416.2
1947.845	6494.2
1952.058	6516.2
1956.267	6420.2
1960.472	6401.2
1964.673	6434.2
1968.87	6462.2
1973.063	6478.2
1977.252	6366.2
1981.438	6232.2
1985.619	6199.2
1989.797	6092.2
1993.971	6023.2
1998.14	5832.2
2002.306	5846.2
2006.469	5807.2
2010.627	5783.2
2014.781	5789.2
2018.932	5846.2
2023.078	5694.2
2027.221	5643.2
2031.36	5652.2
2035.495	5734.2
2039.627	5625.2
2043.754	5489.2
2047.878	5534.2
2051.998	5498.2
2056.114	5470.2
2060.226	5538.2
2064.334	5416.2
2068.439	5318.2
2072.54	5308.2
2076.637	5496.2
2080.73	5419.2
2084.82	5407.2
2088.906	5389.2
2092.988	5415.2
2097.066	5500.2
2101.14	5404.2
2105.211	5486.2
2109.278	5474.2
2113.342	5509.2
2117.401	5578.2
2121.457	5567.2
2125.509	5492.2
2129.558	5271.2
2133.602	5364.2
2137.643	5244.2
2141.681	5205.2
2145.714	5171.2
2149.744	5067.2
2153.77	5155.2
2157.793	5081.2
2161.812	5096.2
2165.827	5105.2
2169.838	4926.2
2173.846	4928.2
2177.851	4844.2
2181.851	4785.2
2185.848	4826.2
2189.841	4741.2
2193.831	4757.2
2197.817	4523.2
2201.799	4543.2
2205.778	4593.2
2209.753	4560.2
2213.725	4574.2
2217.693	4477.2
2221.657	4487.2
2225.618	4420.2
2229.575	4408.2
2233.529	4311.2
2237.479	4430.2
2241.425	4299.2
2245.368	4475.2
2249.307	4318.2
2253.243	4294.2
2257.175	4280.2
2261.104	4175.2
2265.029	4137.2
2268.95	4132.2
2272.868	4044.2
2276.783	4044.2
2280.694	3839.2
2284.601	3846.2
2288.505	3877.2
2292.405	3737.2
2296.302	3820.2
2300.195	3725.2
2304.085	3815.2
2307.971	3712.2
2311.854	3733.2
2315.734	3605.2
2319.609	3628.2
2323.482	3711.2
2327.351	3634.2
2331.216	3571.2
2335.078	3567.2
2338.937	3540.2
2342.792	3541.2
2346.643	3547.2
2350.492	3472.2
2354.336	3472.2
2358.178	3419.2
2362.015	3442.2
2365.85	3538.2
2369.681	3509.2
2373.508	3509.2
2377.333	3414.2
2381.153	3521.2
2384.971	3440.2
2388.785	3464.2
2392.595	3479.2
2396.402	3575.2
2400.206	3597.2
2404.007	3548.2
2407.804	3409.2
2411.597	3330.2
2415.388	3431.2
2419.174	3331.2
2422.958	3313.2
2426.738	3288.2
2430.515	3168.2
2434.289	3312.2
2438.059	3286.2
2441.825	3284.2
2445.589	3099.2
2449.349	3230.2
2453.106	3104.2
2456.859	3150.2
2460.61	3014.2
2464.356	3022.2
2468.1	3045.2
2471.84	3040.2
2475.577	3100.2
2479.311	3002.2
2483.041	2950.2
2486.768	2826.2
2490.492	2678.2
2494.213	3093.2
2497.93	2918.2
2501.644	2953.2
2505.355	2913.2
2509.062	2875.2
2512.766	2895.2
2516.467	2969.2
2520.165	2922.2
2523.859	2924.2
2527.551	2738.2
2531.239	2867.2
2534.923	2864.2
2538.605	2845.2
2542.283	2759.2
2545.958	2836.2
2549.63	2760.2
2553.299	2774.2
2556.964	2775.2
2560.626	2768.2
2564.285	2724.2
2567.941	2790.2
2571.594	2814.2
2575.243	2645.2
2578.89	2752.2
2582.533	2738.2
2586.173	2699.2
2589.809	2675.2
2593.443	2906.2
2597.073	2750.2
2600.701	2573.2
2604.325	2714.2
2607.946	2592.2
2611.564	2625.2
2615.178	2514.2
2618.79	2516.2
2622.398	2479.2
2626.004	2571.2
2629.606	2471.2
2633.205	2683.2
2636.801	2481.2
2640.394	2419.2
2643.983	2463.2
2647.57	2423.2
2651.153	2366.2
2654.734	2268.2
2658.311	2431.2
2661.885	2361.2
2665.456	2342.2
2669.025	2278.2
2672.589	2278.2
2676.151	2154.2
2679.71	2183.2
2683.266	2169.2
2686.819	2117.2
2690.368	2082.2
2693.915	2143.2
2697.458	2176.2
2700.999	2038.2
2704.536	2018.2
2708.071	2011.2
2711.602	2036.2
2715.13	1960.2
2718.656	1946.2
2722.178	1837.2
2725.697	1947.2
2729.214	1657.2
2732.727	1777.2
2736.237	1936.2
2739.744	1790.2
2743.249	1938.2
2746.75	1876.2
2750.248	1907.2
2753.743	1973.2
2757.236	1899.2
2760.725	1906.2
2764.211	2082.2
2767.695	1871.2
2771.175	1982.2
2774.652	1876.2
2778.127	1902.2
2781.598	1932.2
2785.067	1890.2
2788.532	1945.2
2791.995	2022.2
2795.455	1904.2
2798.911	1882.2
2802.365	2020.2
2805.816	1917.2
2809.264	1860.2
2812.709	1929.2
2816.151	1883.2
2819.59	2057.2
2823.026	2010.2
2826.46	2033.2
2829.89	1968.2
2833.318	2164.2
2836.742	2021.2
2840.164	1995.2
2843.583	2081.2
2846.999	2028.2
2850.412	2005.2
2853.822	2045.2
2857.229	1984.2
2860.634	2043.2
2864.035	2088.2
2867.434	2052.2
2870.83	1964.2
2874.223	2131.2
2877.613	2030.2
2881	2230.2
2884.385	2317.2
2887.766	2190.2
2891.145	2170.2
2894.521	2306.2
2897.894	2373.2
2901.264	2065.2
2904.631	2348.2
2907.996	2331.2
2911.358	2307.2
2914.717	2275.2
2918.073	2322.2
2921.426	2286.2
2924.777	2395.2
2928.124	2450.2
2931.469	2336.2
2934.811	2624.2
2938.15	2407.2
2941.487	2483.2
2944.821	2422.2
2948.152	2562.2
2951.48	2539.2
2954.805	2515.2
2958.128	2429.2
2961.447	2544.2
2964.765	2447.2
2968.079	2581.2
2971.39	2526.2
2974.699	2531.2
2978.005	2568.2
2981.308	2566.2
2984.609	2720.2
2987.907	2652.2
2991.202	2695.2
2994.494	2782.2
2997.784	2455.2
3001.07	2762.2
3004.355	2759.2
3007.636	2837.2
3010.915	2876.2
3014.191	2995.2
3017.464	2948.2
3020.734	2963.2
3024.002	3063.2
3027.267	3073.2
3030.53	3097.2
3033.789	3189.2
3037.046	3343.2
3040.301	3297.2
3043.552	3339.2
3046.801	3372.2
3050.048	3285.2
3053.291	3318.2
3056.532	3500.2
3059.771	3692.2
3063.006	3631.2
3066.239	3642.2
3069.469	3796.2
3072.697	4021.2
3075.922	4082.2
3079.144	4090.2
3082.364	4164.2
3085.581	4393.2
3088.795	4395.2
3092.007	4473.2
3095.216	4723.2
3098.423	4904.2
3101.627	5039.2
3104.828	5120.2
3108.026	5223.2
3111.222	5221.2
3114.416	5275.2
3117.607	5434.2
3120.795	5529.2
3123.98	5675.2
3127.163	5832.2
3130.344	5858.2
3133.521	5973.2
3136.696	6215.2
3139.869	6181.2
3143.039	6328.2
3146.206	6363.2
3149.371	6488.2
3152.533	6571.2
3155.693	6760.2
3158.85	6847.2
3162.005	6873.2
3165.157	7023.2
3168.306	7097.2
3171.453	7013.2
3174.597	7234.2
3177.739	7171.2
3180.878	7112.2
3184.014	7115.2
3187.149	7120.2
3190.28	7109.2
3193.409	7040.2
3196.536	7098.2
3199.659	7032.2
3202.781	7089.2
3205.9	7171.2
3209.016	7026.2
3212.13	7102.2
3215.241	7019.2
3218.35	7066.2
3221.456	7144.2
3224.56	7284.2
3227.661	7221.2
3230.76	7375.2
3233.856	7224.2
3236.95	7132.2
3240.041	7214.2
3243.13	7008.2
3246.216	7064.2
3249.3	6867.2
3252.382	6901.2
3255.46	7012.2
3258.537	6616.2
3261.611	6889.2
3264.682	6729.2
3267.751	6734.2
3270.818	6754.2
3273.882	6570.2
3276.943	6517.2
3280.002	6494.2
3283.059	6513.2
3286.113	6526.2
3289.165	6491.2
3292.214	6409.2
3295.261	6249.2
3298.306	6329.2
3301.348	6231.2
3304.387	6139.2
3307.425	6020.2
3310.459	5981.2
3313.492	5696.2
3316.521	5702.2
3319.549	5668.2
3322.574	5629.2
3325.597	5528.2
3328.617	5532.2
3331.635	5385.2
3334.65	5433.2
3337.663	5401.2
3340.674	5348.2
3343.682	5270.2
3346.688	5235.2
3349.691	5195.2
3352.692	5276.2
3355.691	5021.2
3358.687	5149.2
3361.681	5143.2
3364.673	5160.2
3367.662	5120.2
3370.649	4937.2
3373.633	5071.2
3376.615	4857.2
3379.595	5119.2
3382.572	5035.2
3385.547	4822.2
3388.52	4873.2
3391.49	4808.2
3394.458	4750.2
3397.424	4609.2
3400.387	4759.2
3403.348	4341.2
3406.307	4385.2
3409.263	4479.2
3412.217	4235.2
3415.168	4246.2
3418.118	4236.2
3421.065	4192.2
3424.009	4040.2
3426.951	4094.2
3429.891	3735.2
3432.829	3995.2
3435.764	3943.2
3438.697	3980.2
3441.628	3721.2
3444.557	3794.2
3447.483	3788.2
3450.407	3573.2
3453.328	3572.2
3456.247	3546.2
3459.164	3493.2
3462.079	3256.2
3464.991	3222.2
3467.902	3262.2
3470.809	3101.2
3473.715	3004.2
3476.618	2852.2
3479.519	2839.2
3482.418	2915.2
3485.315	2712.2
3488.209	2598.2
3491.101	2623.2
3493.99	2424.2
3496.878	2201.2
3499.763	2293.2
3502.646	2256.2
3505.527	2282.2
3508.405	2182.2
3511.281	2085.2
3514.155	2149.2
3517.027	2042.2
3519.897	2165.2
3522.764	1841.2
3525.629	1849.2
3528.492	1786.2
3531.352	1692.2
3534.211	1648.2
3537.067	1716.2
3539.921	1586.2
3542.773	1500.2
3545.622	1361.2
3548.469	1481.2
3551.315	1432.2
3554.157	1345.2
3556.998	1150.2
3559.837	1118.2
3562.673	1083.2
3565.507	1133.2
3568.339	1062.2
3571.169	1087.2
3573.996	977.2
3576.822	1018.2
3579.645	961.2
3582.466	909.2
3585.285	840.2
3588.101	790.2
3590.916	851.2
3593.728	748.2
3596.538	796.2
3599.346	671.2
3602.152	754.2
3604.956	683.2
3607.757	553.2
3610.556	719.2
3613.354	612.2
3616.149	566.2
3618.942	553.2
3621.732	322.2
3624.521	528.2
3627.307	416.2
3630.092	468.2
3632.874	304.2
3635.654	429.2
3638.432	479.2
3641.208	385.2
3643.982	414.2
3646.753	342.2
3649.523	462.2
3652.29	349.2
3655.055	358.2
3657.818	276.2
3660.579	294.2
3663.338	359.2
3666.095	173.2
3668.849	391.2
3671.602	196.2
3674.352	286.2
3677.101	194.2
3679.847	144.2
3682.591	209.2
3685.333	186.2
3688.073	130.2
3690.811	247.2
3693.547	251.2
3696.281	163.2
3699.013	114.2
3701.742	147.2
3704.47	199.2
3707.195	91.2
3709.919	75.2
3712.64	118.2
3715.359	2.2
3718.076	-100.8
3720.792	109.2
3723.505	37.2
3726.216	12.2
3728.925	120.2
3731.632	-124.8
3734.336	114.2
3737.039	42.2
3739.74	49.2
3742.439	273.2
3745.136	44.2
3747.83	-15.8
3750.523	7.2
3753.213	-240.8
3755.902	-20.8
3758.589	117.2
3761.273	70.2
3763.956	-104.8
3766.636	10.2
3769.315	-121.8
3771.991	65.2
3774.665	-77.8
3777.338	121.2
3780.008	38.2
3782.677	14.2
3785.343	81.2
3788.007	58.2
3790.67	-47.8
3793.33	-61.8
3795.989	-25.8
3798.645	-72.8
3801.299	82.2
3803.952	-53.8
3806.602	-69.8
3809.251	-23.8
3811.897	9.2
3814.542	-32.8
3817.184	-28.8
3819.825	-29.8
3822.463	45.2
3825.1	-37.8
3827.735	17.2
3830.367	11.2
3832.998	-161.8
3835.627	-67.8
3838.253	-87.8
3840.878	-46.8
3843.501	-143.8
3846.122	-96.8
3848.741	-105.8
3851.358	-16.8
3853.973	44.2
3856.586	-14.8
3859.197	-68.8
3861.806	-68.8
3864.414	12.2
3867.019	-48.8
3869.622	-131.8
3872.224	-152.8
3874.823	34.2
3877.421	-17.8
3880.016	-1.8
3882.61	97.2
3885.202	61.2
3887.792	79.2
3890.38	-86.8
3892.966	2.2
3895.55	-38.8
3898.132	-40.8
3900.713	-108.8
3903.291	-63.8
3905.868	-99.8
3908.442	-107.8
3911.015	-29.8
3913.586	-105.8
3916.155	-127.8
3918.722	-18.8
3921.287	-35.8
3923.85	-156.8
3926.411	-77.8
3928.971	-133.8
3931.528	-91.8
3934.084	-133.8
3936.638	-53.8
3939.19	-117.8
3941.74	-113.8
3944.288	-173.8
3946.834	-67.8
3949.378	-107.8
3951.921	-67.8
3954.462	-80.8
3957	-114.8
3959.537	-15.8
3962.072	47.2
3964.606	84.2
3967.137	-64.8
3969.667	-92.8
3972.194	-100.8
3974.72	-83.8
3977.244	-6.8
3979.766	-5.8
3982.286	23.2
3984.805	-85.8
3987.321	-143.8
3989.836	-117.8
3992.349	-7.8
3994.86	-75.8
3997.369	-28.8
3999.877	-99.8
4002.382	-106.8
4004.886	-68.8
4007.388	-25.8
4009.888	24.2
4012.386	-117.8
4014.883	-78.8
4017.377	-101.8
4019.87	-221.8
4022.361	-58.8
4024.85	-32.8
4027.338	-107.8
4029.823	-130.8
4032.307	-77.8
4034.789	-38.8
4037.269	16.2
4039.747	48.2
4042.224	-76.8
4044.699	-53.8
4047.172	-62.8
4049.643	-77.8
4052.112	78.2
4054.58	-78.8
4057.046	-72.8
4059.51	-19.8
4061.972	-111.8
4064.432	104.2
4066.891	-163.8
4069.348	-31.8
4071.803	-101.8
4074.256	-107.8
4076.708	-92.8
4079.158	-77.8
4081.606	-149.8
4084.052	-23.8
4086.497	-98.8
4088.939	-20.8
4091.38	-32.8
4093.819	-114.8
4096.257	-1164.8
4098.693	-1180.8
4101.127	-1203.8
4103.559	-1213.8
4105.989	109.2
4108.418	131.2
4110.845	361.2
4113.27	165.2
4115.694	402.2
4118.115	326.2
4120.535	-128.8
4122.954	-188.8
4125.37	-221.8
4127.785	-41.8
4130.198	-116.8
4132.609	-155.8
4135.019	-1243.8
4137.427	-1241.8
4139.833	-1171.8
4142.237	-1014.8
