Data from 100CFU3_B_ramanshift_RamanShift_12-21-47-632.txt Node
Date: Sun Jan 01 12:21:47 IST 2017
User: aro
Spectrometer: QEPB0276
Trigger mode: 0
Integration Time (sec): 5.000000E0
Scans to average: 1
Electric dark correction enabled: true
Nonlinearity correction enabled: false
Boxcar width: 0
XAxis mode: Raman Shifts
Number of Pixels in Spectrum: 1044
>>>>>Begin Spectral Data<<<<<
160.701	10.12
166.742	21.12
172.777	68.12
178.805	198.12
184.826	589.12
190.841	1411.12
196.849	2688.12
202.85	3885.12
208.845	4512.12
214.833	4569.12
220.815	4379.12
226.789	4242.12
232.758	4147.12
238.719	4045.12
244.674	3892.12
250.623	3783.12
256.565	3641.12
262.5	3481.12
268.429	3336.12
274.351	3237.12
280.267	3115.12
286.176	2985.12
292.079	2900.12
297.975	2816.12
303.865	2751.12
309.748	2686.12
315.625	2623.12
321.495	2543.12
327.359	2496.12
333.217	2470.12
339.068	2480.12
344.912	2438.12
350.751	2432.12
356.583	2426.12
362.408	2416.12
368.227	2414.12
374.04	2394.12
379.847	2428.12
385.647	2425.12
391.44	2449.12
397.228	2452.12
403.009	2464.12
408.784	2475.12
414.553	2498.12
420.315	2490.12
426.071	2489.12
431.821	2483.12
437.565	2497.12
443.302	2494.12
449.033	2467.12
454.758	2477.12
460.477	2463.12
466.189	2450.12
471.896	2451.12
477.596	2440.12
483.29	2423.12
488.978	2429.12
494.66	2406.12
500.335	2399.12
506.005	2378.12
511.668	2313.12
517.325	2300.12
522.977	2264.12
528.622	2229.12
534.261	2195.12
539.894	2195.12
545.521	2180.12
551.141	2160.12
556.756	2136.12
562.365	2141.12
567.968	2123.12
573.565	2127.12
579.155	2116.12
584.74	2092.12
590.319	2096.12
595.892	2088.12
601.459	2075.12
607.02	2059.12
612.575	2059.12
618.124	2008.12
623.667	1997.12
629.204	1981.12
634.735	1951.12
640.261	1951.12
645.781	1957.12
651.294	1922.12
656.802	1911.12
662.304	1923.12
667.8	1897.12
673.29	1905.12
678.775	1903.12
684.254	1885.12
689.726	1880.12
695.193	1884.12
700.655	1888.12
706.11	1865.12
711.56	1846.12
717.004	1844.12
722.442	1831.12
727.874	1822.12
733.301	1815.12
738.722	1779.12
744.137	1786.12
749.547	1795.12
754.951	1780.12
760.349	1784.12
765.741	1797.12
771.128	1790.12
776.509	1778.12
781.885	1791.12
787.254	1790.12
792.618	1785.12
797.977	1774.12
803.33	1760.12
808.677	1750.12
814.019	1738.12
819.355	1712.12
824.686	1696.12
830.011	1687.12
835.33	1688.12
840.644	1676.12
845.952	1666.12
851.255	1662.12
856.552	1671.12
861.844	1647.12
867.13	1640.12
872.41	1649.12
877.686	1640.12
882.955	1628.12
888.219	1610.12
893.478	1587.12
898.731	1556.12
903.979	1541.12
909.221	1535.12
914.458	1502.12
919.69	1498.12
924.916	1504.12
930.136	1507.12
935.351	1500.12
940.561	1515.12
945.766	1511.12
950.965	1497.12
956.158	1510.12
961.347	1490.12
966.529	1461.12
971.707	1463.12
976.879	1422.12
982.046	1410.12
987.208	1399.12
992.364	1391.12
997.515	1397.12
1002.66	1420.12
1007.801	1435.12
1012.936	1426.12
1018.066	1430.12
1023.19	1444.12
1028.309	1449.12
1033.423	1449.12
1038.532	1466.12
1043.636	1452.12
1048.734	1415.12
1053.827	1413.12
1058.915	1404.12
1063.998	1415.12
1069.075	1389.12
1074.147	1383.12
1079.214	1378.12
1084.276	1414.12
1089.333	1419.12
1094.385	1416.12
1099.431	1445.12
1104.472	1441.12
1109.509	1443.12
1114.54	1429.12
1119.565	1406.12
1124.586	1402.12
1129.602	1369.12
1134.613	1372.12
1139.618	1352.12
1144.619	1376.12
1149.614	1367.12
1154.604	1368.12
1159.589	1367.12
1164.57	1394.12
1169.545	1371.12
1174.515	1407.12
1179.48	1380.12
1184.44	1381.12
1189.395	1374.12
1194.345	1369.12
1199.29	1361.12
1204.23	1349.12
1209.165	1348.12
1214.095	1376.12
1219.021	1380.12
1223.941	1389.12
1228.856	1401.12
1233.766	1408.12
1238.672	1411.12
1243.572	1401.12
1248.467	1384.12
1253.358	1397.12
1258.244	1366.12
1263.124	1360.12
1268	1338.12
1272.871	1328.12
1277.737	1322.12
1282.599	1322.12
1287.455	1308.12
1292.306	1317.12
1297.153	1315.12
1301.995	1337.12
1306.832	1327.12
1311.664	1353.12
1316.491	1349.12
1321.314	1356.12
1326.132	1346.12
1330.945	1332.12
1335.753	1330.12
1340.556	1300.12
1345.354	1281.12
1350.148	1278.12
1354.937	1274.12
1359.722	1259.12
1364.501	1255.12
1369.276	1242.12
1374.046	1226.12
1378.811	1205.12
1383.572	1207.12
1388.327	1208.12
1393.079	1220.12
1397.825	1216.12
1402.567	1197.12
1407.304	1189.12
1412.036	1177.12
1416.764	1182.12
1421.487	1166.12
1426.205	1192.12
1430.919	1187.12
1435.628	1201.12
1440.333	1226.12
1445.032	1236.12
1449.727	1245.12
1454.418	1245.12
1459.104	1258.12
1463.785	1252.12
1468.462	1236.12
1473.134	1225.12
1477.802	1210.12
1482.465	1193.12
1487.123	1190.12
1491.777	1202.12
1496.426	1194.12
1501.071	1192.12
1505.711	1214.12
1510.347	1236.12
1514.978	1222.12
1519.604	1240.12
1524.226	1245.12
1528.844	1247.12
1533.457	1241.12
1538.065	1240.12
1542.669	1234.12
1547.269	1235.12
1551.864	1224.12
1556.454	1232.12
1561.041	1228.12
1565.622	1242.12
1570.199	1271.12
1574.772	1289.12
1579.34	1309.12
1583.904	1314.12
1588.464	1348.12
1593.019	1351.12
1597.569	1379.12
1602.115	1373.12
1606.657	1383.12
1611.195	1407.12
1615.728	1405.12
1620.256	1420.12
1624.78	1423.12
1629.3	1454.12
1633.816	1448.12
1638.327	1487.12
1642.834	1515.12
1647.336	1530.12
1651.834	1516.12
1656.328	1522.12
1660.817	1508.12
1665.302	1496.12
1669.783	1497.12
1674.259	1452.12
1678.732	1410.12
1683.199	1397.12
1687.663	1328.12
1692.122	1289.12
1696.577	1261.12
1701.028	1227.12
1705.474	1168.12
1709.917	1129.12
1714.355	1105.12
1718.788	1089.12
1723.218	1061.12
1727.643	1053.12
1732.064	1055.12
1736.481	1034.12
1740.893	1002.12
1745.301	985.12
1749.705	969.12
1754.105	934.12
1758.501	928.12
1762.893	911.12
1767.28	893.12
1771.663	872.12
1776.042	883.12
1780.417	863.12
1784.787	891.12
1789.154	882.12
1793.516	877.12
1797.874	895.12
1802.228	885.12
1806.578	873.12
1810.924	855.12
1815.266	839.12
1819.603	837.12
1823.937	819.12
1828.266	827.12
1832.591	803.12
1836.913	799.12
1841.23	805.12
1845.543	796.12
1849.852	800.12
1854.156	808.12
1858.457	811.12
1862.754	818.12
1867.047	814.12
1871.335	822.12
1875.62	825.12
1879.9	829.12
1884.177	841.12
1888.449	823.12
1892.718	828.12
1896.982	818.12
1901.243	823.12
1905.499	799.12
1909.752	810.12
1914	790.12
1918.245	802.12
1922.485	802.12
1926.722	818.12
1930.954	802.12
1935.183	812.12
1939.408	809.12
1943.628	812.12
1947.845	813.12
1952.058	801.12
1956.267	809.12
1960.472	805.12
1964.673	790.12
1968.87	784.12
1973.063	780.12
1977.252	777.12
1981.438	768.12
1985.619	757.12
1989.797	753.12
1993.971	766.12
1998.14	755.12
2002.306	760.12
2006.469	770.12
2010.627	776.12
2014.781	795.12
2018.932	783.12
2023.078	786.12
2027.221	765.12
2031.36	776.12
2035.495	767.12
2039.627	756.12
2043.754	765.12
2047.878	746.12
2051.998	748.12
2056.114	751.12
2060.226	753.12
2064.334	754.12
2068.439	755.12
2072.54	748.12
2076.637	756.12
2080.73	754.12
2084.82	755.12
2088.906	751.12
2092.988	758.12
2097.066	761.12
2101.14	756.12
2105.211	750.12
2109.278	737.12
2113.342	736.12
2117.401	732.12
2121.457	736.12
2125.509	725.12
2129.558	732.12
2133.602	734.12
2137.643	716.12
2141.681	716.12
2145.714	721.12
2149.744	707.12
2153.77	713.12
2157.793	709.12
2161.812	707.12
2165.827	700.12
2169.838	682.12
2173.846	674.12
2177.851	676.12
2181.851	656.12
2185.848	657.12
2189.841	642.12
2193.831	637.12
2197.817	645.12
2201.799	627.12
2205.778	630.12
2209.753	625.12
2213.725	637.12
2217.693	639.12
2221.657	635.12
2225.618	621.12
2229.575	620.12
2233.529	627.12
2237.479	625.12
2241.425	625.12
2245.368	602.12
2249.307	606.12
2253.243	586.12
2257.175	586.12
2261.104	577.12
2265.029	570.12
2268.95	562.12
2272.868	561.12
2276.783	564.12
2280.694	554.12
2284.601	540.12
2288.505	545.12
2292.405	537.12
2296.302	523.12
2300.195	532.12
2304.085	523.12
2307.971	519.12
2311.854	507.12
2315.734	489.12
2319.609	479.12
2323.482	486.12
2327.351	478.12
2331.216	468.12
2335.078	465.12
2338.937	471.12
2342.792	459.12
2346.643	454.12
2350.492	465.12
2354.336	459.12
2358.178	469.12
2362.015	454.12
2365.85	463.12
2369.681	472.12
2373.508	467.12
2377.333	462.12
2381.153	463.12
2384.971	463.12
2388.785	450.12
2392.595	464.12
2396.402	450.12
2400.206	439.12
2404.007	453.12
2407.804	454.12
2411.597	453.12
2415.388	438.12
2419.174	443.12
2422.958	449.12
2426.738	438.12
2430.515	442.12
2434.289	431.12
2438.059	437.12
2441.825	435.12
2445.589	435.12
2449.349	439.12
2453.106	422.12
2456.859	420.12
2460.61	416.12
2464.356	426.12
2468.1	415.12
2471.84	401.12
2475.577	407.12
2479.311	412.12
2483.041	415.12
2486.768	413.12
2490.492	403.12
2494.213	408.12
2497.93	415.12
2501.644	410.12
2505.355	416.12
2509.062	410.12
2512.766	418.12
2516.467	396.12
2520.165	409.12
2523.859	403.12
2527.551	390.12
2531.239	395.12
2534.923	404.12
2538.605	388.12
2542.283	386.12
2545.958	383.12
2549.63	381.12
2553.299	388.12
2556.964	377.12
2560.626	378.12
2564.285	368.12
2567.941	381.12
2571.594	369.12
2575.243	371.12
2578.89	360.12
2582.533	362.12
2586.173	362.12
2589.809	362.12
2593.443	350.12
2597.073	355.12
2600.701	348.12
2604.325	345.12
2607.946	355.12
2611.564	354.12
2615.178	353.12
2618.79	345.12
2622.398	347.12
2626.004	338.12
2629.606	340.12
2633.205	345.12
2636.801	343.12
2640.394	333.12
2643.983	327.12
2647.57	328.12
2651.153	320.12
2654.734	307.12
2658.311	314.12
2661.885	311.12
2665.456	313.12
2669.025	301.12
2672.589	303.12
2676.151	302.12
2679.71	307.12
2683.266	306.12
2686.819	295.12
2690.368	297.12
2693.915	293.12
2697.458	296.12
2700.999	284.12
2704.536	288.12
2708.071	282.12
2711.602	281.12
2715.13	284.12
2718.656	279.12
2722.178	273.12
2725.697	273.12
2729.214	279.12
2732.727	281.12
2736.237	272.12
2739.744	280.12
2743.249	282.12
2746.75	266.12
2750.248	279.12
2753.743	276.12
2757.236	279.12
2760.725	274.12
2764.211	273.12
2767.695	266.12
2771.175	261.12
2774.652	253.12
2778.127	262.12
2781.598	265.12
2785.067	262.12
2788.532	265.12
2791.995	253.12
2795.455	267.12
2798.911	264.12
2802.365	266.12
2805.816	264.12
2809.264	262.12
2812.709	267.12
2816.151	271.12
2819.59	265.12
2823.026	268.12
2826.46	267.12
2829.89	273.12
2833.318	271.12
2836.742	272.12
2840.164	266.12
2843.583	272.12
2846.999	278.12
2850.412	274.12
2853.822	278.12
2857.229	277.12
2860.634	284.12
2864.035	285.12
2867.434	285.12
2870.83	288.12
2874.223	288.12
2877.613	293.12
2881	285.12
2884.385	293.12
2887.766	290.12
2891.145	294.12
2894.521	293.12
2897.894	288.12
2901.264	291.12
2904.631	295.12
2907.996	295.12
2911.358	293.12
2914.717	301.12
2918.073	305.12
2921.426	306.12
2924.777	309.12
2928.124	311.12
2931.469	326.12
2934.811	329.12
2938.15	327.12
2941.487	330.12
2944.821	337.12
2948.152	337.12
2951.48	345.12
2954.805	343.12
2958.128	347.12
2961.447	341.12
2964.765	346.12
2968.079	365.12
2971.39	368.12
2974.699	364.12
2978.005	380.12
2981.308	375.12
2984.609	388.12
2987.907	390.12
2991.202	405.12
2994.494	411.12
2997.784	420.12
3001.07	433.12
3004.355	438.12
3007.636	446.12
3010.915	451.12
3014.191	459.12
3017.464	469.12
3020.734	481.12
3024.002	477.12
3027.267	490.12
3030.53	509.12
3033.789	499.12
3037.046	512.12
3040.301	529.12
3043.552	529.12
3046.801	541.12
3050.048	548.12
3053.291	570.12
3056.532	580.12
3059.771	602.12
3063.006	606.12
3066.239	639.12
3069.469	654.12
3072.697	672.12
3075.922	668.12
3079.144	698.12
3082.364	696.12
3085.581	726.12
3088.795	732.12
3092.007	753.12
3095.216	762.12
3098.423	772.12
3101.627	794.12
3104.828	821.12
3108.026	829.12
3111.222	848.12
3114.416	856.12
3117.607	887.12
3120.795	910.12
3123.98	919.12
3127.163	938.12
3130.344	955.12
3133.521	993.12
3136.696	992.12
3139.869	1016.12
3143.039	1043.12
3146.206	1066.12
3149.371	1075.12
3152.533	1087.12
3155.693	1090.12
3158.85	1084.12
3162.005	1102.12
3165.157	1110.12
3168.306	1102.12
3171.453	1124.12
3174.597	1115.12
3177.739	1124.12
3180.878	1140.12
3184.014	1129.12
3187.149	1146.12
3190.28	1149.12
3193.409	1149.12
3196.536	1155.12
3199.659	1160.12
3202.781	1154.12
3205.9	1155.12
3209.016	1148.12
3212.13	1150.12
3215.241	1146.12
3218.35	1155.12
3221.456	1147.12
3224.56	1130.12
3227.661	1115.12
3230.76	1110.12
3233.856	1088.12
3236.95	1092.12
3240.041	1088.12
3243.13	1068.12
3246.216	1056.12
3249.3	1062.12
3252.382	1052.12
3255.46	1044.12
3258.537	1048.12
3261.611	1040.12
3264.682	1027.12
3267.751	1037.12
3270.818	1034.12
3273.882	1039.12
3276.943	1016.12
3280.002	1019.12
3283.059	1008.12
3286.113	1003.12
3289.165	973.12
3292.214	965.12
3295.261	964.12
3298.306	936.12
3301.348	921.12
3304.387	915.12
3307.425	901.12
3310.459	888.12
3313.492	883.12
3316.521	875.12
3319.549	861.12
3322.574	860.12
3325.597	849.12
3328.617	832.12
3331.635	852.12
3334.65	831.12
3337.663	826.12
3340.674	830.12
3343.682	822.12
3346.688	816.12
3349.691	812.12
3352.692	820.12
3355.691	799.12
3358.687	805.12
3361.681	791.12
3364.673	783.12
3367.662	776.12
3370.649	769.12
3373.633	767.12
3376.615	744.12
3379.595	747.12
3382.572	736.12
3385.547	720.12
3388.52	711.12
3391.49	699.12
3394.458	681.12
3397.424	681.12
3400.387	679.12
3403.348	665.12
3406.307	658.12
3409.263	649.12
3412.217	648.12
3415.168	636.12
3418.118	640.12
3421.065	632.12
3424.009	617.12
3426.951	613.12
3429.891	598.12
3432.829	600.12
3435.764	571.12
3438.697	579.12
3441.628	560.12
3444.557	550.12
3447.483	531.12
3450.407	526.12
3453.328	518.12
3456.247	506.12
3459.164	490.12
3462.079	475.12
3464.991	469.12
3467.902	440.12
3470.809	439.12
3473.715	415.12
3476.618	405.12
3479.519	397.12
3482.418	385.12
3485.315	379.12
3488.209	368.12
3491.101	362.12
3493.99	349.12
3496.878	335.12
3499.763	329.12
3502.646	320.12
3505.527	314.12
3508.405	305.12
3511.281	288.12
3514.155	285.12
3517.027	278.12
3519.897	262.12
3522.764	246.12
3525.629	240.12
3528.492	224.12
3531.352	219.12
3534.211	211.12
3537.067	195.12
3539.921	183.12
3542.773	179.12
3545.622	173.12
3548.469	162.12
3551.315	154.12
3554.157	147.12
3556.998	143.12
3559.837	131.12
3562.673	126.12
3565.507	122.12
3568.339	116.12
3571.169	108.12
3573.996	103.12
3576.822	103.12
3579.645	96.12
3582.466	87.12
3585.285	85.12
3588.101	78.12
3590.916	70.12
3593.728	65.12
3596.538	66.12
3599.346	52.12
3602.152	52.12
3604.956	51.12
3607.757	42.12
3610.556	31.12
3613.354	39.12
3616.149	31.12
3618.942	27.12
3621.732	25.12
3624.521	23.12
3627.307	18.12
3630.092	12.12
3632.874	12.12
3635.654	8.12
3638.432	7.12
3641.208	5.12
3643.982	3.12
3646.753	1.12
3649.523	0.12
3652.29	-2.88
3655.055	-7.88
3657.818	-10.88
3660.579	-9.88
3663.338	-15.88
3666.095	-15.88
3668.849	-13.88
3671.602	-16.88
3674.352	-23.88
3677.101	-18.88
3679.847	-28.88
3682.591	-29.88
3685.333	-27.88
3688.073	-29.88
3690.811	-33.88
3693.547	-34.88
3696.281	-37.88
3699.013	-32.88
3701.742	-38.88
3704.47	-40.88
3707.195	-38.88
3709.919	-39.88
3712.64	-41.88
3715.359	-37.88
3718.076	-39.88
3720.792	-46.88
3723.505	-46.88
3726.216	-43.88
3728.925	-47.88
3731.632	-47.88
3734.336	-46.88
3737.039	-48.88
3739.74	-47.88
3742.439	-45.88
3745.136	-49.88
3747.83	-46.88
3750.523	-52.88
3753.213	-48.88
3755.902	-52.88
3758.589	-53.88
3761.273	-54.88
3763.956	-52.88
3766.636	-55.88
3769.315	-55.88
3771.991	-57.88
3774.665	-58.88
3777.338	-55.88
3780.008	-59.88
3782.677	-61.88
3785.343	-60.88
3788.007	-54.88
3790.67	-60.88
3793.33	-63.88
3795.989	-62.88
3798.645	-62.88
3801.299	-61.88
3803.952	-63.88
3806.602	-65.88
3809.251	-63.88
3811.897	-59.88
3814.542	-66.88
3817.184	-64.88
3819.825	-59.88
3822.463	-61.88
3825.1	-62.88
3827.735	-60.88
3830.367	-61.88
3832.998	-62.88
3835.627	-62.88
3838.253	-61.88
3840.878	-68.88
3843.501	-62.88
3846.122	-63.88
3848.741	-67.88
3851.358	-66.88
3853.973	-64.88
3856.586	-63.88
3859.197	-66.88
3861.806	-66.88
3864.414	-66.88
3867.019	-64.88
3869.622	-68.88
3872.224	-67.88
3874.823	-63.88
3877.421	-67.88
3880.016	-61.88
3882.61	-60.88
3885.202	-63.88
3887.792	-58.88
3890.38	-61.88
3892.966	-62.88
3895.55	-65.88
3898.132	-68.88
3900.713	-64.88
3903.291	-68.88
3905.868	-67.88
3908.442	-65.88
3911.015	-65.88
3913.586	-65.88
3916.155	-68.88
3918.722	-67.88
3921.287	-65.88
3923.85	-72.88
3926.411	-67.88
3928.971	-69.88
3931.528	-67.88
3934.084	-73.88
3936.638	-71.88
3939.19	-70.88
3941.74	-72.88
3944.288	-68.88
3946.834	-69.88
3949.378	-72.88
3951.921	-68.88
3954.462	-71.88
3957	-69.88
3959.537	-68.88
3962.072	-70.88
3964.606	-66.88
3967.137	-67.88
3969.667	-71.88
3972.194	-68.88
3974.72	-65.88
3977.244	-65.88
3979.766	-65.88
3982.286	-67.88
3984.805	-67.88
3987.321	-66.88
3989.836	-67.88
3992.349	-66.88
3994.86	-68.88
3997.369	-67.88
3999.877	-67.88
4002.382	-66.88
4004.886	-66.88
4007.388	-69.88
4009.888	-67.88
4012.386	-64.88
4014.883	-67.88
4017.377	-69.88
4019.87	-70.88
4022.361	-69.88
4024.85	-68.88
4027.338	-67.88
4029.823	-68.88
4032.307	-70.88
4034.789	-67.88
4037.269	-69.88
4039.747	-69.88
4042.224	-70.88
4044.699	-71.88
4047.172	-68.88
4049.643	-68.88
4052.112	-69.88
4054.58	-66.88
4057.046	-70.88
4059.51	-68.88
4061.972	-71.88
4064.432	-69.88
4066.891	-69.88
4069.348	-71.88
4071.803	-70.88
4074.256	-71.88
4076.708	-68.88
4079.158	-70.88
4081.606	-71.88
4084.052	-66.88
4086.497	-70.88
4088.939	-73.88
4091.38	-72.88
4093.819	-73.88
4096.257	-75.88
4098.693	-72.88
4101.127	-73.88
4103.559	-71.88
4105.989	-24.88
4108.418	-19.88
4110.845	-18.88
4113.27	-16.88
4115.694	-11.88
4118.115	-6.88
4120.535	-71.88
4122.954	-72.88
4125.37	-73.88
4127.785	-71.88
4130.198	-72.88
4132.609	-70.88
4135.019	-75.88
4137.427	-74.88
4139.833	-72.88
4142.237	-73.88
