Data from 1CFU1_A_ramanshift_RamanShift_11-34-02-795.txt Node
Date: Sun Jan 01 11:34:02 IST 2017
User: aro
Spectrometer: QEPB0276
Trigger mode: 0
Integration Time (sec): 5.000000E0
Scans to average: 1
Electric dark correction enabled: true
Nonlinearity correction enabled: false
Boxcar width: 0
XAxis mode: Raman Shifts
Number of Pixels in Spectrum: 1044
>>>>>Begin Spectral Data<<<<<
160.701	2.25
166.742	16.25
172.777	57.25
178.805	203.25
184.826	600.25
190.841	1420.25
196.849	2600.25
202.85	3721.25
208.845	4236.25
214.833	4250.25
220.815	4058.25
226.789	3940.25
232.758	3830.25
238.719	3736.25
244.674	3585.25
250.623	3463.25
256.565	3315.25
262.5	3135.25
268.429	3008.25
274.351	2877.25
280.267	2761.25
286.176	2679.25
292.079	2604.25
297.975	2497.25
303.865	2447.25
309.748	2385.25
315.625	2304.25
321.495	2275.25
327.359	2211.25
333.217	2212.25
339.068	2178.25
344.912	2154.25
350.751	2141.25
356.583	2144.25
362.408	2134.25
368.227	2116.25
374.04	2139.25
379.847	2143.25
385.647	2131.25
391.44	2159.25
397.228	2161.25
403.009	2191.25
408.784	2190.25
414.553	2185.25
420.315	2197.25
426.071	2182.25
431.821	2199.25
437.565	2211.25
443.302	2214.25
449.033	2198.25
454.758	2178.25
460.477	2176.25
466.189	2143.25
471.896	2146.25
477.596	2130.25
483.29	2122.25
488.978	2116.25
494.66	2118.25
500.335	2095.25
506.005	2048.25
511.668	2026.25
517.325	1991.25
522.977	1973.25
528.622	1935.25
534.261	1916.25
539.894	1896.25
545.521	1902.25
551.141	1862.25
556.756	1851.25
562.365	1843.25
567.968	1830.25
573.565	1809.25
579.155	1809.25
584.74	1811.25
590.319	1806.25
595.892	1769.25
601.459	1763.25
607.02	1755.25
612.575	1746.25
618.124	1722.25
623.667	1712.25
629.204	1689.25
634.735	1685.25
640.261	1663.25
645.781	1654.25
651.294	1652.25
656.802	1648.25
662.304	1615.25
667.8	1618.25
673.29	1602.25
678.775	1609.25
684.254	1613.25
689.726	1594.25
695.193	1600.25
700.655	1580.25
706.11	1575.25
711.56	1548.25
717.004	1547.25
722.442	1544.25
727.874	1534.25
733.301	1535.25
738.722	1518.25
744.137	1503.25
749.547	1506.25
754.951	1496.25
760.349	1502.25
765.741	1510.25
771.128	1485.25
776.509	1501.25
781.885	1498.25
787.254	1480.25
792.618	1496.25
797.977	1483.25
803.33	1465.25
808.677	1451.25
814.019	1431.25
819.355	1435.25
824.686	1395.25
830.011	1397.25
835.33	1384.25
840.644	1388.25
845.952	1395.25
851.255	1374.25
856.552	1371.25
861.844	1363.25
867.13	1353.25
872.41	1343.25
877.686	1330.25
882.955	1311.25
888.219	1307.25
893.478	1289.25
898.731	1280.25
903.979	1242.25
909.221	1230.25
914.458	1217.25
919.69	1225.25
924.916	1221.25
930.136	1215.25
935.351	1216.25
940.561	1216.25
945.766	1212.25
950.965	1206.25
956.158	1196.25
961.347	1182.25
966.529	1158.25
971.707	1152.25
976.879	1155.25
982.046	1126.25
987.208	1119.25
992.364	1119.25
997.515	1130.25
1002.66	1123.25
1007.801	1138.25
1012.936	1138.25
1018.066	1161.25
1023.19	1148.25
1028.309	1167.25
1033.423	1161.25
1038.532	1150.25
1043.636	1158.25
1048.734	1156.25
1053.827	1131.25
1058.915	1127.25
1063.998	1105.25
1069.075	1106.25
1074.147	1111.25
1079.214	1115.25
1084.276	1119.25
1089.333	1129.25
1094.385	1132.25
1099.431	1145.25
1104.472	1155.25
1109.509	1154.25
1114.54	1136.25
1119.565	1113.25
1124.586	1111.25
1129.602	1112.25
1134.613	1094.25
1139.618	1077.25
1144.619	1100.25
1149.614	1079.25
1154.604	1083.25
1159.589	1101.25
1164.57	1112.25
1169.545	1116.25
1174.515	1103.25
1179.48	1116.25
1184.44	1110.25
1189.395	1096.25
1194.345	1087.25
1199.29	1076.25
1204.23	1088.25
1209.165	1097.25
1214.095	1098.25
1219.021	1096.25
1223.941	1112.25
1228.856	1126.25
1233.766	1123.25
1238.672	1129.25
1243.572	1129.25
1248.467	1118.25
1253.358	1105.25
1258.244	1111.25
1263.124	1070.25
1268	1063.25
1272.871	1046.25
1277.737	1050.25
1282.599	1038.25
1287.455	1037.25
1292.306	1052.25
1297.153	1046.25
1301.995	1057.25
1306.832	1061.25
1311.664	1067.25
1316.491	1076.25
1321.314	1068.25
1326.132	1061.25
1330.945	1044.25
1335.753	1031.25
1340.556	1023.25
1345.354	1027.25
1350.148	1007.25
1354.937	997.25
1359.722	996.25
1364.501	977.25
1369.276	986.25
1374.046	969.25
1378.811	955.25
1383.572	963.25
1388.327	957.25
1393.079	964.25
1397.825	954.25
1402.567	943.25
1407.304	941.25
1412.036	937.25
1416.764	941.25
1421.487	933.25
1426.205	932.25
1430.919	953.25
1435.628	948.25
1440.333	959.25
1445.032	967.25
1449.727	964.25
1454.418	980.25
1459.104	977.25
1463.785	985.25
1468.462	978.25
1473.134	973.25
1477.802	953.25
1482.465	941.25
1487.123	944.25
1491.777	948.25
1496.426	945.25
1501.071	967.25
1505.711	960.25
1510.347	969.25
1514.978	972.25
1519.604	976.25
1524.226	994.25
1528.844	996.25
1533.457	979.25
1538.065	1003.25
1542.669	989.25
1547.269	993.25
1551.864	993.25
1556.454	995.25
1561.041	993.25
1565.622	1016.25
1570.199	1027.25
1574.772	1040.25
1579.34	1055.25
1583.904	1086.25
1588.464	1103.25
1593.019	1109.25
1597.569	1138.25
1602.115	1122.25
1606.657	1143.25
1611.195	1152.25
1615.728	1162.25
1620.256	1180.25
1624.78	1199.25
1629.3	1201.25
1633.816	1229.25
1638.327	1254.25
1642.834	1256.25
1647.336	1287.25
1651.834	1271.25
1656.328	1274.25
1660.817	1273.25
1665.302	1257.25
1669.783	1237.25
1674.259	1200.25
1678.732	1160.25
1683.199	1146.25
1687.663	1099.25
1692.122	1059.25
1696.577	1028.25
1701.028	977.25
1705.474	956.25
1709.917	906.25
1714.355	892.25
1718.788	869.25
1723.218	850.25
1727.643	861.25
1732.064	835.25
1736.481	815.25
1740.893	785.25
1745.301	774.25
1749.705	756.25
1754.105	732.25
1758.501	717.25
1762.893	708.25
1767.28	694.25
1771.663	689.25
1776.042	683.25
1780.417	673.25
1784.787	675.25
1789.154	675.25
1793.516	671.25
1797.874	682.25
1802.228	669.25
1806.578	659.25
1810.924	667.25
1815.266	653.25
1819.603	645.25
1823.937	631.25
1828.266	626.25
1832.591	628.25
1836.913	631.25
1841.23	616.25
1845.543	620.25
1849.852	603.25
1854.156	617.25
1858.457	619.25
1862.754	634.25
1867.047	642.25
1871.335	630.25
1875.62	634.25
1879.9	634.25
1884.177	636.25
1888.449	630.25
1892.718	628.25
1896.982	626.25
1901.243	620.25
1905.499	618.25
1909.752	609.25
1914	602.25
1918.245	619.25
1922.485	612.25
1926.722	623.25
1930.954	627.25
1935.183	627.25
1939.408	629.25
1943.628	636.25
1947.845	621.25
1952.058	619.25
1956.267	611.25
1960.472	613.25
1964.673	606.25
1968.87	599.25
1973.063	603.25
1977.252	595.25
1981.438	599.25
1985.619	590.25
1989.797	587.25
1993.971	591.25
1998.14	602.25
2002.306	603.25
2006.469	603.25
2010.627	610.25
2014.781	613.25
2018.932	616.25
2023.078	614.25
2027.221	606.25
2031.36	602.25
2035.495	617.25
2039.627	588.25
2043.754	599.25
2047.878	577.25
2051.998	597.25
2056.114	592.25
2060.226	595.25
2064.334	596.25
2068.439	592.25
2072.54	588.25
2076.637	592.25
2080.73	597.25
2084.82	610.25
2088.906	605.25
2092.988	606.25
2097.066	603.25
2101.14	596.25
2105.211	591.25
2109.278	593.25
2113.342	578.25
2117.401	575.25
2121.457	576.25
2125.509	583.25
2129.558	587.25
2133.602	573.25
2137.643	575.25
2141.681	562.25
2145.714	559.25
2149.744	575.25
2153.77	556.25
2157.793	567.25
2161.812	552.25
2165.827	553.25
2169.838	541.25
2173.846	529.25
2177.851	532.25
2181.851	522.25
2185.848	519.25
2189.841	503.25
2193.831	514.25
2197.817	515.25
2201.799	506.25
2205.778	501.25
2209.753	495.25
2213.725	491.25
2217.693	504.25
2221.657	497.25
2225.618	478.25
2229.575	485.25
2233.529	490.25
2237.479	480.25
2241.425	481.25
2245.368	473.25
2249.307	469.25
2253.243	459.25
2257.175	461.25
2261.104	447.25
2265.029	446.25
2268.95	441.25
2272.868	425.25
2276.783	430.25
2280.694	419.25
2284.601	421.25
2288.505	420.25
2292.405	416.25
2296.302	410.25
2300.195	402.25
2304.085	395.25
2307.971	394.25
2311.854	388.25
2315.734	388.25
2319.609	372.25
2323.482	372.25
2327.351	363.25
2331.216	364.25
2335.078	373.25
2338.937	362.25
2342.792	361.25
2346.643	352.25
2350.492	346.25
2354.336	350.25
2358.178	346.25
2362.015	350.25
2365.85	350.25
2369.681	355.25
2373.508	358.25
2377.333	349.25
2381.153	356.25
2384.971	354.25
2388.785	352.25
2392.595	340.25
2396.402	346.25
2400.206	354.25
2404.007	350.25
2407.804	344.25
2411.597	347.25
2415.388	333.25
2419.174	335.25
2422.958	341.25
2426.738	341.25
2430.515	337.25
2434.289	341.25
2438.059	332.25
2441.825	337.25
2445.589	324.25
2449.349	325.25
2453.106	328.25
2456.859	322.25
2460.61	320.25
2464.356	315.25
2468.1	310.25
2471.84	309.25
2475.577	304.25
2479.311	311.25
2483.041	311.25
2486.768	308.25
2490.492	313.25
2494.213	305.25
2497.93	319.25
2501.644	311.25
2505.355	313.25
2509.062	313.25
2512.766	309.25
2516.467	309.25
2520.165	309.25
2523.859	305.25
2527.551	304.25
2531.239	296.25
2534.923	301.25
2538.605	291.25
2542.283	294.25
2545.958	296.25
2549.63	289.25
2553.299	284.25
2556.964	290.25
2560.626	285.25
2564.285	290.25
2567.941	277.25
2571.594	277.25
2575.243	281.25
2578.89	269.25
2582.533	274.25
2586.173	275.25
2589.809	265.25
2593.443	263.25
2597.073	265.25
2600.701	260.25
2604.325	268.25
2607.946	261.25
2611.564	260.25
2615.178	258.25
2618.79	255.25
2622.398	264.25
2626.004	255.25
2629.606	262.25
2633.205	249.25
2636.801	253.25
2640.394	247.25
2643.983	252.25
2647.57	243.25
2651.153	245.25
2654.734	237.25
2658.311	234.25
2661.885	232.25
2665.456	236.25
2669.025	232.25
2672.589	226.25
2676.151	236.25
2679.71	226.25
2683.266	228.25
2686.819	221.25
2690.368	223.25
2693.915	220.25
2697.458	225.25
2700.999	217.25
2704.536	217.25
2708.071	215.25
2711.602	213.25
2715.13	216.25
2718.656	215.25
2722.178	214.25
2725.697	213.25
2729.214	218.25
2732.727	216.25
2736.237	218.25
2739.744	219.25
2743.249	217.25
2746.75	210.25
2750.248	216.25
2753.743	212.25
2757.236	209.25
2760.725	218.25
2764.211	207.25
2767.695	208.25
2771.175	209.25
2774.652	206.25
2778.127	202.25
2781.598	202.25
2785.067	196.25
2788.532	201.25
2791.995	203.25
2795.455	201.25
2798.911	201.25
2802.365	214.25
2805.816	202.25
2809.264	216.25
2812.709	206.25
2816.151	212.25
2819.59	210.25
2823.026	212.25
2826.46	214.25
2829.89	207.25
2833.318	218.25
2836.742	214.25
2840.164	209.25
2843.583	220.25
2846.999	216.25
2850.412	223.25
2853.822	221.25
2857.229	218.25
2860.634	221.25
2864.035	227.25
2867.434	230.25
2870.83	231.25
2874.223	230.25
2877.613	228.25
2881	230.25
2884.385	233.25
2887.766	240.25
2891.145	242.25
2894.521	235.25
2897.894	232.25
2901.264	234.25
2904.631	240.25
2907.996	242.25
2911.358	240.25
2914.717	239.25
2918.073	253.25
2921.426	255.25
2924.777	258.25
2928.124	262.25
2931.469	264.25
2934.811	270.25
2938.15	273.25
2941.487	276.25
2944.821	282.25
2948.152	288.25
2951.48	291.25
2954.805	287.25
2958.128	305.25
2961.447	294.25
2964.765	299.25
2968.079	312.25
2971.39	311.25
2974.699	320.25
2978.005	325.25
2981.308	332.25
2984.609	338.25
2987.907	357.25
2991.202	349.25
2994.494	360.25
2997.784	368.25
3001.07	386.25
3004.355	389.25
3007.636	400.25
3010.915	412.25
3014.191	414.25
3017.464	422.25
3020.734	424.25
3024.002	430.25
3027.267	437.25
3030.53	450.25
3033.789	462.25
3037.046	472.25
3040.301	480.25
3043.552	490.25
3046.801	488.25
3050.048	501.25
3053.291	518.25
3056.532	532.25
3059.771	550.25
3063.006	575.25
3066.239	579.25
3069.469	603.25
3072.697	617.25
3075.922	622.25
3079.144	639.25
3082.364	663.25
3085.581	665.25
3088.795	689.25
3092.007	703.25
3095.216	722.25
3098.423	730.25
3101.627	756.25
3104.828	756.25
3108.026	774.25
3111.222	792.25
3114.416	812.25
3117.607	824.25
3120.795	851.25
3123.98	865.25
3127.163	891.25
3130.344	910.25
3133.521	925.25
3136.696	944.25
3139.869	961.25
3143.039	979.25
3146.206	996.25
3149.371	1016.25
3152.533	1023.25
3155.693	1031.25
3158.85	1036.25
3162.005	1050.25
3165.157	1050.25
3168.306	1063.25
3171.453	1066.25
3174.597	1058.25
3177.739	1069.25
3180.878	1078.25
3184.014	1089.25
3187.149	1074.25
3190.28	1072.25
3193.409	1096.25
3196.536	1098.25
3199.659	1092.25
3202.781	1106.25
3205.9	1106.25
3209.016	1106.25
3212.13	1096.25
3215.241	1095.25
3218.35	1107.25
3221.456	1086.25
3224.56	1071.25
3227.661	1068.25
3230.76	1057.25
3233.856	1053.25
3236.95	1025.25
3240.041	1037.25
3243.13	1022.25
3246.216	1024.25
3249.3	1005.25
3252.382	1007.25
3255.46	1008.25
3258.537	988.25
3261.611	977.25
3264.682	1003.25
3267.751	988.25
3270.818	989.25
3273.882	982.25
3276.943	979.25
3280.002	978.25
3283.059	974.25
3286.113	959.25
3289.165	949.25
3292.214	931.25
3295.261	912.25
3298.306	904.25
3301.348	896.25
3304.387	874.25
3307.425	862.25
3310.459	857.25
3313.492	855.25
3316.521	852.25
3319.549	828.25
3322.574	816.25
3325.597	812.25
3328.617	812.25
3331.635	803.25
3334.65	796.25
3337.663	802.25
3340.674	789.25
3343.682	791.25
3346.688	795.25
3349.691	788.25
3352.692	788.25
3355.691	783.25
3358.687	763.25
3361.681	758.25
3364.673	760.25
3367.662	739.25
3370.649	743.25
3373.633	738.25
3376.615	734.25
3379.595	711.25
3382.572	709.25
3385.547	697.25
3388.52	694.25
3391.49	676.25
3394.458	662.25
3397.424	663.25
3400.387	663.25
3403.348	655.25
3406.307	636.25
3409.263	630.25
3412.217	629.25
3415.168	627.25
3418.118	614.25
3421.065	609.25
3424.009	602.25
3426.951	596.25
3429.891	585.25
3432.829	574.25
3435.764	562.25
3438.697	566.25
3441.628	539.25
3444.557	527.25
3447.483	521.25
3450.407	510.25
3453.328	483.25
3456.247	485.25
3459.164	477.25
3462.079	450.25
3464.991	442.25
3467.902	432.25
3470.809	416.25
3473.715	409.25
3476.618	394.25
3479.519	383.25
3482.418	379.25
3485.315	369.25
3488.209	354.25
3491.101	346.25
3493.99	337.25
3496.878	324.25
3499.763	318.25
3502.646	310.25
3505.527	299.25
3508.405	292.25
3511.281	272.25
3514.155	267.25
3517.027	252.25
3519.897	247.25
3522.764	237.25
3525.629	225.25
3528.492	219.25
3531.352	198.25
3534.211	197.25
3537.067	184.25
3539.921	176.25
3542.773	166.25
3545.622	162.25
3548.469	149.25
3551.315	137.25
3554.157	136.25
3556.998	131.25
3559.837	125.25
3562.673	114.25
3565.507	117.25
3568.339	114.25
3571.169	100.25
3573.996	101.25
3576.822	97.25
3579.645	89.25
3582.466	82.25
3585.285	77.25
3588.101	65.25
3590.916	65.25
3593.728	54.25
3596.538	60.25
3599.346	49.25
3602.152	46.25
3604.956	39.25
3607.757	37.25
3610.556	27.25
3613.354	34.25
3616.149	31.25
3618.942	25.25
3621.732	25.25
3624.521	19.25
3627.307	18.25
3630.092	15.25
3632.874	11.25
3635.654	8.25
3638.432	3.25
3641.208	4.25
3643.982	5.25
3646.753	3.25
3649.523	-1.75
3652.29	-3.75
3655.055	-7.75
3657.818	-9.75
3660.579	-12.75
3663.338	-12.75
3666.095	-15.75
3668.849	-11.75
3671.602	-19.75
3674.352	-24.75
3677.101	-24.75
3679.847	-28.75
3682.591	-22.75
3685.333	-25.75
3688.073	-30.75
3690.811	-31.75
3693.547	-32.75
3696.281	-36.75
3699.013	-36.75
3701.742	-37.75
3704.47	-39.75
3707.195	-37.75
3709.919	-43.75
3712.64	-43.75
3715.359	-42.75
3718.076	-40.75
3720.792	-46.75
3723.505	-43.75
3726.216	-44.75
3728.925	-43.75
3731.632	-46.75
3734.336	-45.75
3737.039	-47.75
3739.74	-46.75
3742.439	-48.75
3745.136	-48.75
3747.83	-52.75
3750.523	-45.75
3753.213	-50.75
3755.902	-50.75
3758.589	-52.75
3761.273	-54.75
3763.956	-52.75
3766.636	-55.75
3769.315	-55.75
3771.991	-59.75
3774.665	-55.75
3777.338	-54.75
3780.008	-59.75
3782.677	-62.75
3785.343	-56.75
3788.007	-57.75
3790.67	-59.75
3793.33	-58.75
3795.989	-59.75
3798.645	-61.75
3801.299	-63.75
3803.952	-61.75
3806.602	-61.75
3809.251	-62.75
3811.897	-61.75
3814.542	-62.75
3817.184	-60.75
3819.825	-58.75
3822.463	-62.75
3825.1	-59.75
3827.735	-59.75
3830.367	-58.75
3832.998	-65.75
3835.627	-64.75
3838.253	-61.75
3840.878	-65.75
3843.501	-62.75
3846.122	-60.75
3848.741	-64.75
3851.358	-70.75
3853.973	-64.75
3856.586	-64.75
3859.197	-66.75
3861.806	-72.75
3864.414	-66.75
3867.019	-64.75
3869.622	-69.75
3872.224	-68.75
3874.823	-65.75
3877.421	-66.75
3880.016	-61.75
3882.61	-60.75
3885.202	-63.75
3887.792	-59.75
3890.38	-58.75
3892.966	-63.75
3895.55	-66.75
3898.132	-59.75
3900.713	-67.75
3903.291	-65.75
3905.868	-65.75
3908.442	-65.75
3911.015	-64.75
3913.586	-65.75
3916.155	-65.75
3918.722	-66.75
3921.287	-63.75
3923.85	-69.75
3926.411	-65.75
3928.971	-66.75
3931.528	-68.75
3934.084	-69.75
3936.638	-68.75
3939.19	-66.75
3941.74	-67.75
3944.288	-67.75
3946.834	-67.75
3949.378	-72.75
3951.921	-68.75
3954.462	-69.75
3957	-66.75
3959.537	-66.75
3962.072	-67.75
3964.606	-65.75
3967.137	-65.75
3969.667	-68.75
3972.194	-67.75
3974.72	-62.75
3977.244	-64.75
3979.766	-66.75
3982.286	-64.75
3984.805	-66.75
3987.321	-62.75
3989.836	-64.75
3992.349	-68.75
3994.86	-64.75
3997.369	-65.75
3999.877	-65.75
4002.382	-63.75
4004.886	-64.75
4007.388	-67.75
4009.888	-65.75
4012.386	-64.75
4014.883	-65.75
4017.377	-66.75
4019.87	-67.75
4022.361	-67.75
4024.85	-69.75
4027.338	-67.75
4029.823	-64.75
4032.307	-70.75
4034.789	-68.75
4037.269	-70.75
4039.747	-68.75
4042.224	-68.75
4044.699	-70.75
4047.172	-67.75
4049.643	-66.75
4052.112	-65.75
4054.58	-66.75
4057.046	-66.75
4059.51	-66.75
4061.972	-66.75
4064.432	-69.75
4066.891	-65.75
4069.348	-68.75
4071.803	-69.75
4074.256	-69.75
4076.708	-69.75
4079.158	-70.75
4081.606	-72.75
4084.052	-66.75
4086.497	-70.75
4088.939	-70.75
4091.38	-70.75
4093.819	-70.75
4096.257	-70.75
4098.693	-68.75
4101.127	-71.75
4103.559	-69.75
4105.989	-28.75
4108.418	-23.75
4110.845	-22.75
4113.27	-21.75
4115.694	-15.75
4118.115	-6.75
4120.535	-68.75
4122.954	-67.75
4125.37	-67.75
4127.785	-69.75
4130.198	-66.75
4132.609	-65.75
4135.019	-71.75
4137.427	-69.75
4139.833	-68.75
4142.237	-68.75
