Data from 1CFU1_B_RamanShift_1.txt Node
Date: Mon Feb 13 13:54:04 IST 2017
User: aro
Spectrometer: QEPB0276
Trigger mode: 0
Integration Time (sec): 5.000000E0
Scans to average: 1
Electric dark correction enabled: true
Nonlinearity correction enabled: false
Boxcar width: 0
XAxis mode: Raman Shifts
Number of Pixels in Spectrum: 1044
>>>>>Begin Spectral Data<<<<<
160.701	-2.75
166.742	3.25
172.777	17.25
178.805	73.25
184.826	181.25
190.841	362.25
196.849	564.25
202.85	706.25
208.845	748.25
214.833	732.25
220.815	720.25
226.789	710.25
232.758	701.25
238.719	689.25
244.674	678.25
250.623	667.25
256.565	653.25
262.5	632.25
268.429	621.25
274.351	607.25
280.267	597.25
286.176	605.25
292.079	585.25
297.975	576.25
303.865	586.25
309.748	575.25
315.625	576.25
321.495	578.25
327.359	562.25
333.217	570.25
339.068	573.25
344.912	575.25
350.751	592.25
356.583	588.25
362.408	595.25
368.227	593.25
374.04	570.25
379.847	571.25
385.647	574.25
391.44	577.25
397.228	583.25
403.009	583.25
408.784	594.25
414.553	591.25
420.315	597.25
426.071	602.25
431.821	603.25
437.565	599.25
443.302	604.25
449.033	601.25
454.758	599.25
460.477	592.25
466.189	570.25
471.896	569.25
477.596	561.25
483.29	570.25
488.978	552.25
494.66	540.25
500.335	534.25
506.005	513.25
511.668	487.25
517.325	470.25
522.977	456.25
528.622	440.25
534.261	419.25
539.894	424.25
545.521	413.25
551.141	412.25
556.756	414.25
562.365	393.25
567.968	387.25
573.565	391.25
579.155	394.25
584.74	385.25
590.319	384.25
595.892	370.25
601.459	396.25
607.02	379.25
612.575	375.25
618.124	366.25
623.667	369.25
629.204	361.25
634.735	355.25
640.261	355.25
645.781	352.25
651.294	344.25
656.802	344.25
662.304	343.25
667.8	346.25
673.29	330.25
678.775	342.25
684.254	333.25
689.726	329.25
695.193	332.25
700.655	332.25
706.11	327.25
711.56	328.25
717.004	324.25
722.442	329.25
727.874	322.25
733.301	319.25
738.722	314.25
744.137	319.25
749.547	312.25
754.951	319.25
760.349	317.25
765.741	315.25
771.128	319.25
776.509	322.25
781.885	324.25
787.254	314.25
792.618	325.25
797.977	323.25
803.33	324.25
808.677	320.25
814.019	319.25
819.355	313.25
824.686	313.25
830.011	320.25
835.33	318.25
840.644	319.25
845.952	326.25
851.255	337.25
856.552	327.25
861.844	339.25
867.13	333.25
872.41	329.25
877.686	323.25
882.955	326.25
888.219	334.25
893.478	321.25
898.731	315.25
903.979	302.25
909.221	305.25
914.458	294.25
919.69	285.25
924.916	291.25
930.136	280.25
935.351	286.25
940.561	288.25
945.766	300.25
950.965	286.25
956.158	287.25
961.347	276.25
966.529	270.25
971.707	271.25
976.879	260.25
982.046	263.25
987.208	256.25
992.364	255.25
997.515	271.25
1002.66	270.25
1007.801	277.25
1012.936	279.25
1018.066	272.25
1023.19	284.25
1028.309	288.25
1033.423	294.25
1038.532	290.25
1043.636	287.25
1048.734	286.25
1053.827	301.25
1058.915	297.25
1063.998	302.25
1069.075	308.25
1074.147	317.25
1079.214	320.25
1084.276	323.25
1089.333	324.25
1094.385	327.25
1099.431	322.25
1104.472	298.25
1109.509	286.25
1114.54	285.25
1119.565	286.25
1124.586	297.25
1129.602	285.25
1134.613	290.25
1139.618	278.25
1144.619	252.25
1149.614	250.25
1154.604	248.25
1159.589	247.25
1164.57	239.25
1169.545	242.25
1174.515	236.25
1179.48	232.25
1184.44	227.25
1189.395	221.25
1194.345	221.25
1199.29	223.25
1204.23	222.25
1209.165	216.25
1214.095	220.25
1219.021	228.25
1223.941	229.25
1228.856	228.25
1233.766	231.25
1238.672	243.25
1243.572	243.25
1248.467	247.25
1253.358	250.25
1258.244	248.25
1263.124	246.25
1268	245.25
1272.871	248.25
1277.737	251.25
1282.599	240.25
1287.455	238.25
1292.306	239.25
1297.153	257.25
1301.995	265.25
1306.832	276.25
1311.664	272.25
1316.491	259.25
1321.314	253.25
1326.132	242.25
1330.945	230.25
1335.753	218.25
1340.556	224.25
1345.354	209.25
1350.148	204.25
1354.937	211.25
1359.722	207.25
1364.501	204.25
1369.276	194.25
1374.046	203.25
1378.811	204.25
1383.572	205.25
1388.327	200.25
1393.079	196.25
1397.825	188.25
1402.567	189.25
1407.304	183.25
1412.036	184.25
1416.764	184.25
1421.487	195.25
1426.205	197.25
1430.919	211.25
1435.628	234.25
1440.333	247.25
1445.032	269.25
1449.727	279.25
1454.418	270.25
1459.104	265.25
1463.785	254.25
1468.462	233.25
1473.134	218.25
1477.802	190.25
1482.465	172.25
1487.123	161.25
1491.777	161.25
1496.426	146.25
1501.071	147.25
1505.711	146.25
1510.347	147.25
1514.978	146.25
1519.604	148.25
1524.226	151.25
1528.844	151.25
1533.457	145.25
1538.065	146.25
1542.669	147.25
1547.269	138.25
1551.864	145.25
1556.454	143.25
1561.041	144.25
1565.622	143.25
1570.199	146.25
1574.772	146.25
1579.34	155.25
1583.904	143.25
1588.464	149.25
1593.019	150.25
1597.569	147.25
1602.115	152.25
1606.657	148.25
1611.195	153.25
1615.728	149.25
1620.256	156.25
1624.78	156.25
1629.3	155.25
1633.816	162.25
1638.327	160.25
1642.834	165.25
1647.336	166.25
1651.834	177.25
1656.328	186.25
1660.817	187.25
1665.302	184.25
1669.783	171.25
1674.259	167.25
1678.732	152.25
1683.199	149.25
1687.663	144.25
1692.122	142.25
1696.577	132.25
1701.028	122.25
1705.474	125.25
1709.917	120.25
1714.355	116.25
1718.788	113.25
1723.218	109.25
1727.643	112.25
1732.064	109.25
1736.481	101.25
1740.893	104.25
1745.301	100.25
1749.705	98.25
1754.105	92.25
1758.501	86.25
1762.893	85.25
1767.28	87.25
1771.663	80.25
1776.042	75.25
1780.417	78.25
1784.787	78.25
1789.154	75.25
1793.516	81.25
1797.874	76.25
1802.228	82.25
1806.578	76.25
1810.924	75.25
1815.266	68.25
1819.603	72.25
1823.937	75.25
1828.266	77.25
1832.591	68.25
1836.913	67.25
1841.23	67.25
1845.543	64.25
1849.852	62.25
1854.156	65.25
1858.457	63.25
1862.754	65.25
1867.047	62.25
1871.335	60.25
1875.62	60.25
1879.9	63.25
1884.177	58.25
1888.449	67.25
1892.718	66.25
1896.982	63.25
1901.243	62.25
1905.499	69.25
1909.752	65.25
1914	58.25
1918.245	60.25
1922.485	64.25
1926.722	60.25
1930.954	69.25
1935.183	72.25
1939.408	65.25
1943.628	60.25
1947.845	59.25
1952.058	63.25
1956.267	60.25
1960.472	61.25
1964.673	60.25
1968.87	60.25
1973.063	64.25
1977.252	58.25
1981.438	55.25
1985.619	50.25
1989.797	57.25
1993.971	51.25
1998.14	54.25
2002.306	55.25
2006.469	57.25
2010.627	55.25
2014.781	53.25
2018.932	54.25
2023.078	51.25
2027.221	56.25
2031.36	53.25
2035.495	52.25
2039.627	53.25
2043.754	53.25
2047.878	49.25
2051.998	46.25
2056.114	44.25
2060.226	48.25
2064.334	51.25
2068.439	52.25
2072.54	53.25
2076.637	50.25
2080.73	52.25
2084.82	54.25
2088.906	53.25
2092.988	56.25
2097.066	49.25
2101.14	50.25
2105.211	53.25
2109.278	48.25
2113.342	52.25
2117.401	54.25
2121.457	53.25
2125.509	47.25
2129.558	47.25
2133.602	48.25
2137.643	50.25
2141.681	46.25
2145.714	47.25
2149.744	46.25
2153.77	51.25
2157.793	46.25
2161.812	51.25
2165.827	47.25
2169.838	45.25
2173.846	40.25
2177.851	35.25
2181.851	42.25
2185.848	41.25
2189.841	42.25
2193.831	43.25
2197.817	41.25
2201.799	39.25
2205.778	37.25
2209.753	34.25
2213.725	36.25
2217.693	32.25
2221.657	39.25
2225.618	39.25
2229.575	37.25
2233.529	33.25
2237.479	36.25
2241.425	32.25
2245.368	34.25
2249.307	33.25
2253.243	33.25
2257.175	35.25
2261.104	30.25
2265.029	28.25
2268.95	26.25
2272.868	24.25
2276.783	26.25
2280.694	24.25
2284.601	25.25
2288.505	25.25
2292.405	28.25
2296.302	22.25
2300.195	18.25
2304.085	23.25
2307.971	20.25
2311.854	22.25
2315.734	18.25
2319.609	18.25
2323.482	18.25
2327.351	18.25
2331.216	23.25
2335.078	23.25
2338.937	22.25
2342.792	21.25
2346.643	19.25
2350.492	20.25
2354.336	15.25
2358.178	13.25
2362.015	16.25
2365.85	9.25
2369.681	15.25
2373.508	16.25
2377.333	13.25
2381.153	20.25
2384.971	19.25
2388.785	14.25
2392.595	14.25
2396.402	10.25
2400.206	16.25
2404.007	13.25
2407.804	18.25
2411.597	15.25
2415.388	13.25
2419.174	12.25
2422.958	13.25
2426.738	9.25
2430.515	8.25
2434.289	10.25
2438.059	8.25
2441.825	8.25
2445.589	11.25
2449.349	11.25
2453.106	12.25
2456.859	8.25
2460.61	8.25
2464.356	10.25
2468.1	12.25
2471.84	13.25
2475.577	4.25
2479.311	5.25
2483.041	7.25
2486.768	8.25
2490.492	14.25
2494.213	11.25
2497.93	12.25
2501.644	13.25
2505.355	5.25
2509.062	5.25
2512.766	7.25
2516.467	3.25
2520.165	5.25
2523.859	12.25
2527.551	13.25
2531.239	10.25
2534.923	5.25
2538.605	6.25
2542.283	7.25
2545.958	7.25
2549.63	12.25
2553.299	11.25
2556.964	10.25
2560.626	14.25
2564.285	8.25
2567.941	7.25
2571.594	5.25
2575.243	5.25
2578.89	9.25
2582.533	8.25
2586.173	7.25
2589.809	8.25
2593.443	8.25
2597.073	8.25
2600.701	8.25
2604.325	4.25
2607.946	4.25
2611.564	5.25
2615.178	9.25
2618.79	4.25
2622.398	4.25
2626.004	6.25
2629.606	5.25
2633.205	5.25
2636.801	8.25
2640.394	9.25
2643.983	6.25
2647.57	3.25
2651.153	2.25
2654.734	5.25
2658.311	5.25
2661.885	5.25
2665.456	3.25
2669.025	8.25
2672.589	7.25
2676.151	5.25
2679.71	5.25
2683.266	3.25
2686.819	3.25
2690.368	2.25
2693.915	5.25
2697.458	9.25
2700.999	6.25
2704.536	6.25
2708.071	2.25
2711.602	3.25
2715.13	5.25
2718.656	8.25
2722.178	9.25
2725.697	10.25
2729.214	11.25
2732.727	11.25
2736.237	8.25
2739.744	8.25
2743.249	4.25
2746.75	5.25
2750.248	1.25
2753.743	6.25
2757.236	6.25
2760.725	10.25
2764.211	2.25
2767.695	8.25
2771.175	6.25
2774.652	2.25
2778.127	4.25
2781.598	5.25
2785.067	8.25
2788.532	10.25
2791.995	8.25
2795.455	11.25
2798.911	6.25
2802.365	7.25
2805.816	6.25
2809.264	7.25
2812.709	8.25
2816.151	14.25
2819.59	12.25
2823.026	21.25
2826.46	21.25
2829.89	20.25
2833.318	24.25
2836.742	31.25
2840.164	31.25
2843.583	44.25
2846.999	53.25
2850.412	67.25
2853.822	76.25
2857.229	81.25
2860.634	81.25
2864.035	79.25
2867.434	76.25
2870.83	79.25
2874.223	85.25
2877.613	91.25
2881	95.25
2884.385	104.25
2887.766	105.25
2891.145	102.25
2894.521	103.25
2897.894	107.25
2901.264	101.25
2904.631	99.25
2907.996	97.25
2911.358	104.25
2914.717	96.25
2918.073	96.25
2921.426	92.25
2924.777	90.25
2928.124	90.25
2931.469	95.25
2934.811	90.25
2938.15	86.25
2941.487	84.25
2944.821	80.25
2948.152	83.25
2951.48	71.25
2954.805	72.25
2958.128	61.25
2961.447	63.25
2964.765	59.25
2968.079	56.25
2971.39	50.25
2974.699	49.25
2978.005	51.25
2981.308	43.25
2984.609	43.25
2987.907	47.25
2991.202	43.25
2994.494	33.25
2997.784	34.25
3001.07	34.25
3004.355	37.25
3007.636	40.25
3010.915	39.25
3014.191	39.25
3017.464	35.25
3020.734	30.25
3024.002	29.25
3027.267	32.25
3030.53	33.25
3033.789	33.25
3037.046	32.25
3040.301	36.25
3043.552	30.25
3046.801	30.25
3050.048	31.25
3053.291	29.25
3056.532	31.25
3059.771	41.25
3063.006	36.25
3066.239	40.25
3069.469	39.25
3072.697	37.25
3075.922	40.25
3079.144	41.25
3082.364	44.25
3085.581	47.25
3088.795	48.25
3092.007	54.25
3095.216	49.25
3098.423	48.25
3101.627	50.25
3104.828	46.25
3108.026	53.25
3111.222	58.25
3114.416	51.25
3117.607	57.25
3120.795	66.25
3123.98	70.25
3127.163	63.25
3130.344	64.25
3133.521	68.25
3136.696	66.25
3139.869	69.25
3143.039	71.25
3146.206	73.25
3149.371	72.25
3152.533	77.25
3155.693	73.25
3158.85	72.25
3162.005	80.25
3165.157	79.25
3168.306	74.25
3171.453	79.25
3174.597	80.25
3177.739	81.25
3180.878	81.25
3184.014	80.25
3187.149	79.25
3190.28	80.25
3193.409	83.25
3196.536	81.25
3199.659	84.25
3202.781	82.25
3205.9	83.25
3209.016	79.25
3212.13	77.25
3215.241	77.25
3218.35	76.25
3221.456	81.25
3224.56	79.25
3227.661	76.25
3230.76	80.25
3233.856	73.25
3236.95	74.25
3240.041	73.25
3243.13	73.25
3246.216	76.25
3249.3	69.25
3252.382	71.25
3255.46	67.25
3258.537	73.25
3261.611	70.25
3264.682	70.25
3267.751	71.25
3270.818	69.25
3273.882	70.25
3276.943	70.25
3280.002	67.25
3283.059	68.25
3286.113	65.25
3289.165	67.25
3292.214	69.25
3295.261	66.25
3298.306	61.25
3301.348	60.25
3304.387	58.25
3307.425	60.25
3310.459	58.25
3313.492	57.25
3316.521	57.25
3319.549	56.25
3322.574	51.25
3325.597	54.25
3328.617	56.25
3331.635	55.25
3334.65	50.25
3337.663	49.25
3340.674	54.25
3343.682	56.25
3346.688	45.25
3349.691	55.25
3352.692	43.25
3355.691	45.25
3358.687	50.25
3361.681	50.25
3364.673	53.25
3367.662	49.25
3370.649	52.25
3373.633	49.25
3376.615	48.25
3379.595	41.25
3382.572	45.25
3385.547	44.25
3388.52	43.25
3391.49	44.25
3394.458	43.25
3397.424	41.25
3400.387	42.25
3403.348	39.25
3406.307	36.25
3409.263	40.25
3412.217	39.25
3415.168	40.25
3418.118	35.25
3421.065	35.25
3424.009	31.25
3426.951	35.25
3429.891	29.25
3432.829	32.25
3435.764	33.25
3438.697	35.25
3441.628	32.25
3444.557	34.25
3447.483	27.25
3450.407	30.25
3453.328	28.25
3456.247	24.25
3459.164	23.25
3462.079	23.25
3464.991	20.25
3467.902	13.25
3470.809	20.25
3473.715	20.25
3476.618	18.25
3479.519	19.25
3482.418	18.25
3485.315	20.25
3488.209	11.25
3491.101	17.25
3493.99	10.25
3496.878	10.25
3499.763	14.25
3502.646	13.25
3505.527	13.25
3508.405	12.25
3511.281	5.25
3514.155	5.25
3517.027	4.25
3519.897	1.25
3522.764	5.25
3525.629	5.25
3528.492	3.25
3531.352	1.25
3534.211	0.25
3537.067	-0.75
3539.921	-1.75
3542.773	-5.75
3545.622	-1.75
3548.469	-4.75
3551.315	-3.75
3554.157	-3.75
3556.998	-3.75
3559.837	-8.75
3562.673	-8.75
3565.507	-7.75
3568.339	-7.75
3571.169	-9.75
3573.996	-2.75
3576.822	-8.75
3579.645	-11.75
3582.466	-11.75
3585.285	-15.75
3588.101	-9.75
3590.916	-10.75
3593.728	-10.75
3596.538	-11.75
3599.346	-10.75
3602.152	-15.75
3604.956	-16.75
3607.757	-16.75
3610.556	-10.75
3613.354	-11.75
3616.149	-11.75
3618.942	-8.75
3621.732	-13.75
3624.521	-16.75
3627.307	-16.75
3630.092	-17.75
3632.874	-14.75
3635.654	-16.75
3638.432	-14.75
3641.208	-16.75
3643.982	-14.75
3646.753	-18.75
3649.523	-16.75
3652.29	-21.75
3655.055	-18.75
3657.818	-17.75
3660.579	-17.75
3663.338	-16.75
3666.095	-16.75
3668.849	-17.75
3671.602	-21.75
3674.352	-21.75
3677.101	-19.75
3679.847	-21.75
3682.591	-16.75
3685.333	-18.75
3688.073	-17.75
3690.811	-19.75
3693.547	-19.75
3696.281	-18.75
3699.013	-18.75
3701.742	-18.75
3704.47	-16.75
3707.195	-24.75
3709.919	-20.75
3712.64	-20.75
3715.359	-17.75
3718.076	-19.75
3720.792	-20.75
3723.505	-16.75
3726.216	-22.75
3728.925	-21.75
3731.632	-23.75
3734.336	-23.75
3737.039	-17.75
3739.74	-18.75
3742.439	-19.75
3745.136	-21.75
3747.83	-20.75
3750.523	-21.75
3753.213	-23.75
3755.902	-22.75
3758.589	-20.75
3761.273	-21.75
3763.956	-19.75
3766.636	-22.75
3769.315	-18.75
3771.991	-19.75
3774.665	-21.75
3777.338	-23.75
3780.008	-23.75
3782.677	-24.75
3785.343	-20.75
3788.007	-23.75
3790.67	-16.75
3793.33	-21.75
3795.989	-19.75
3798.645	-23.75
3801.299	-17.75
3803.952	-20.75
3806.602	-21.75
3809.251	-20.75
3811.897	-18.75
3814.542	-23.75
3817.184	-22.75
3819.825	-20.75
3822.463	-21.75
3825.1	-21.75
3827.735	-24.75
3830.367	-19.75
3832.998	-22.75
3835.627	-26.75
3838.253	-19.75
3840.878	-19.75
3843.501	-20.75
3846.122	-18.75
3848.741	-19.75
3851.358	-22.75
3853.973	-20.75
3856.586	-24.75
3859.197	-21.75
3861.806	-21.75
3864.414	-20.75
3867.019	-22.75
3869.622	-16.75
3872.224	-20.75
3874.823	-23.75
3877.421	-19.75
3880.016	-18.75
3882.61	-17.75
3885.202	-15.75
3887.792	-14.75
3890.38	-15.75
3892.966	-16.75
3895.55	-22.75
3898.132	-22.75
3900.713	-25.75
3903.291	-23.75
3905.868	-23.75
3908.442	-20.75
3911.015	-20.75
3913.586	-22.75
3916.155	-21.75
3918.722	-19.75
3921.287	-24.75
3923.85	-24.75
3926.411	-20.75
3928.971	-23.75
3931.528	-20.75
3934.084	-17.75
3936.638	-17.75
3939.19	-18.75
3941.74	-25.75
3944.288	-22.75
3946.834	-25.75
3949.378	-23.75
3951.921	-21.75
3954.462	-20.75
3957	-21.75
3959.537	-17.75
3962.072	-19.75
3964.606	-21.75
3967.137	-24.75
3969.667	-22.75
3972.194	-25.75
3974.72	-18.75
3977.244	-19.75
3979.766	-22.75
3982.286	-16.75
3984.805	-17.75
3987.321	-22.75
3989.836	-19.75
3992.349	-21.75
3994.86	-24.75
3997.369	-24.75
3999.877	-18.75
4002.382	-17.75
4004.886	-19.75
4007.388	-19.75
4009.888	-25.75
4012.386	-21.75
4014.883	-23.75
4017.377	-22.75
4019.87	-20.75
4022.361	-19.75
4024.85	-20.75
4027.338	-20.75
4029.823	-22.75
4032.307	-23.75
4034.789	-24.75
4037.269	-19.75
4039.747	-22.75
4042.224	-21.75
4044.699	-26.75
4047.172	-20.75
4049.643	-19.75
4052.112	-24.75
4054.58	-23.75
4057.046	-21.75
4059.51	-18.75
4061.972	-22.75
4064.432	-22.75
4066.891	-26.75
4069.348	-23.75
4071.803	-22.75
4074.256	-21.75
4076.708	-16.75
4079.158	-21.75
4081.606	-22.75
4084.052	-25.75
4086.497	-24.75
4088.939	-25.75
4091.38	-18.75
4093.819	-20.75
4096.257	-22.75
4098.693	-23.75
4101.127	-18.75
4103.559	-21.75
4105.989	-6.75
4108.418	-8.75
4110.845	-7.75
4113.27	-9.75
4115.694	-14.75
4118.115	-6.75
4120.535	-17.75
4122.954	-18.75
4125.37	-24.75
4127.785	-21.75
4130.198	-24.75
4132.609	-22.75
4135.019	-23.75
4137.427	-24.75
4139.833	-19.75
4142.237	-22.75
