Data from 1000000CFU1_A_RamanShift_1.txt Node
Date: Tue Jan 24 17:35:16 IST 2017
User: aro
Spectrometer: QEPB0276
Trigger mode: 0
Integration Time (sec): 5.000000E0
Scans to average: 1
Electric dark correction enabled: true
Nonlinearity correction enabled: false
Boxcar width: 0
XAxis mode: Raman Shifts
Number of Pixels in Spectrum: 1044
>>>>>Begin Spectral Data<<<<<
160.701	-31.75
166.742	-4.75
172.777	99.25
178.805	404.25
184.826	1123.25
190.841	2299.25
196.849	3606.25
202.85	4423.25
208.845	4638.25
214.833	4489.25
220.815	4332.25
226.789	4199.25
232.758	4136.25
238.719	3997.25
244.674	3846.25
250.623	3675.25
256.565	3536.25
262.5	3403.25
268.429	3255.25
274.351	3109.25
280.267	3017.25
286.176	2894.25
292.079	2807.25
297.975	2753.25
303.865	2669.25
309.748	2593.25
315.625	2522.25
321.495	2479.25
327.359	2430.25
333.217	2407.25
339.068	2396.25
344.912	2377.25
350.751	2352.25
356.583	2384.25
362.408	2373.25
368.227	2355.25
374.04	2369.25
379.847	2378.25
385.647	2381.25
391.44	2391.25
397.228	2403.25
403.009	2426.25
408.784	2434.25
414.553	2438.25
420.315	2456.25
426.071	2468.25
431.821	2460.25
437.565	2443.25
443.302	2452.25
449.033	2444.25
454.758	2438.25
460.477	2421.25
466.189	2398.25
471.896	2397.25
477.596	2398.25
483.29	2385.25
488.978	2388.25
494.66	2374.25
500.335	2343.25
506.005	2302.25
511.668	2262.25
517.325	2230.25
522.977	2196.25
528.622	2150.25
534.261	2156.25
539.894	2135.25
545.521	2105.25
551.141	2083.25
556.756	2090.25
562.365	2083.25
567.968	2072.25
573.565	2048.25
579.155	2033.25
584.74	2025.25
590.319	2035.25
595.892	2016.25
601.459	2000.25
607.02	1998.25
612.575	1972.25
618.124	1952.25
623.667	1963.25
629.204	1922.25
634.735	1902.25
640.261	1885.25
645.781	1869.25
651.294	1885.25
656.802	1861.25
662.304	1871.25
667.8	1861.25
673.29	1850.25
678.775	1836.25
684.254	1836.25
689.726	1828.25
695.193	1822.25
700.655	1814.25
706.11	1801.25
711.56	1796.25
717.004	1779.25
722.442	1765.25
727.874	1756.25
733.301	1742.25
738.722	1757.25
744.137	1740.25
749.547	1743.25
754.951	1735.25
760.349	1744.25
765.741	1728.25
771.128	1726.25
776.509	1742.25
781.885	1729.25
787.254	1733.25
792.618	1733.25
797.977	1735.25
803.33	1720.25
808.677	1706.25
814.019	1675.25
819.355	1671.25
824.686	1657.25
830.011	1650.25
835.33	1639.25
840.644	1629.25
845.952	1629.25
851.255	1630.25
856.552	1620.25
861.844	1626.25
867.13	1612.25
872.41	1605.25
877.686	1590.25
882.955	1575.25
888.219	1554.25
893.478	1526.25
898.731	1510.25
903.979	1487.25
909.221	1462.25
914.458	1465.25
919.69	1471.25
924.916	1450.25
930.136	1457.25
935.351	1481.25
940.561	1462.25
945.766	1462.25
950.965	1459.25
956.158	1455.25
961.347	1438.25
966.529	1405.25
971.707	1397.25
976.879	1371.25
982.046	1352.25
987.208	1364.25
992.364	1374.25
997.515	1366.25
1002.66	1381.25
1007.801	1395.25
1012.936	1400.25
1018.066	1415.25
1023.19	1417.25
1028.309	1419.25
1033.423	1419.25
1038.532	1409.25
1043.636	1393.25
1048.734	1387.25
1053.827	1377.25
1058.915	1363.25
1063.998	1344.25
1069.075	1364.25
1074.147	1364.25
1079.214	1374.25
1084.276	1370.25
1089.333	1382.25
1094.385	1388.25
1099.431	1403.25
1104.472	1404.25
1109.509	1396.25
1114.54	1387.25
1119.565	1384.25
1124.586	1356.25
1129.602	1343.25
1134.613	1324.25
1139.618	1331.25
1144.619	1331.25
1149.614	1323.25
1154.604	1351.25
1159.589	1370.25
1164.57	1362.25
1169.545	1364.25
1174.515	1366.25
1179.48	1362.25
1184.44	1367.25
1189.395	1337.25
1194.345	1332.25
1199.29	1324.25
1204.23	1341.25
1209.165	1344.25
1214.095	1353.25
1219.021	1338.25
1223.941	1377.25
1228.856	1389.25
1233.766	1386.25
1238.672	1375.25
1243.572	1400.25
1248.467	1388.25
1253.358	1362.25
1258.244	1353.25
1263.124	1314.25
1268	1311.25
1272.871	1298.25
1277.737	1286.25
1282.599	1273.25
1287.455	1282.25
1292.306	1296.25
1297.153	1297.25
1301.995	1304.25
1306.832	1338.25
1311.664	1337.25
1316.491	1321.25
1321.314	1327.25
1326.132	1332.25
1330.945	1301.25
1335.753	1289.25
1340.556	1282.25
1345.354	1268.25
1350.148	1256.25
1354.937	1257.25
1359.722	1246.25
1364.501	1240.25
1369.276	1225.25
1374.046	1218.25
1378.811	1214.25
1383.572	1198.25
1388.327	1199.25
1393.079	1204.25
1397.825	1201.25
1402.567	1186.25
1407.304	1177.25
1412.036	1170.25
1416.764	1157.25
1421.487	1167.25
1426.205	1168.25
1430.919	1200.25
1435.628	1204.25
1440.333	1216.25
1445.032	1207.25
1449.727	1242.25
1454.418	1224.25
1459.104	1235.25
1463.785	1222.25
1468.462	1230.25
1473.134	1200.25
1477.802	1197.25
1482.465	1190.25
1487.123	1190.25
1491.777	1187.25
1496.426	1186.25
1501.071	1211.25
1505.711	1215.25
1510.347	1228.25
1514.978	1246.25
1519.604	1250.25
1524.226	1272.25
1528.844	1257.25
1533.457	1240.25
1538.065	1257.25
1542.669	1247.25
1547.269	1238.25
1551.864	1234.25
1556.454	1245.25
1561.041	1262.25
1565.622	1267.25
1570.199	1285.25
1574.772	1301.25
1579.34	1314.25
1583.904	1346.25
1588.464	1347.25
1593.019	1382.25
1597.569	1372.25
1602.115	1386.25
1606.657	1389.25
1611.195	1408.25
1615.728	1424.25
1620.256	1443.25
1624.78	1457.25
1629.3	1474.25
1633.816	1502.25
1638.327	1515.25
1642.834	1542.25
1647.336	1536.25
1651.834	1552.25
1656.328	1539.25
1660.817	1515.25
1665.302	1499.25
1669.783	1501.25
1674.259	1445.25
1678.732	1411.25
1683.199	1372.25
1687.663	1346.25
1692.122	1280.25
1696.577	1259.25
1701.028	1199.25
1705.474	1170.25
1709.917	1133.25
1714.355	1102.25
1718.788	1090.25
1723.218	1085.25
1727.643	1069.25
1732.064	1055.25
1736.481	1022.25
1740.893	996.25
1745.301	981.25
1749.705	954.25
1754.105	932.25
1758.501	925.25
1762.893	922.25
1767.28	898.25
1771.663	886.25
1776.042	885.25
1780.417	897.25
1784.787	884.25
1789.154	891.25
1793.516	896.25
1797.874	882.25
1802.228	874.25
1806.578	875.25
1810.924	856.25
1815.266	847.25
1819.603	837.25
1823.937	819.25
1828.266	814.25
1832.591	814.25
1836.913	803.25
1841.23	815.25
1845.543	812.25
1849.852	808.25
1854.156	826.25
1858.457	801.25
1862.754	821.25
1867.047	829.25
1871.335	834.25
1875.62	836.25
1879.9	834.25
1884.177	833.25
1888.449	844.25
1892.718	831.25
1896.982	821.25
1901.243	822.25
1905.499	829.25
1909.752	815.25
1914	811.25
1918.245	826.25
1922.485	814.25
1926.722	815.25
1930.954	819.25
1935.183	823.25
1939.408	831.25
1943.628	839.25
1947.845	827.25
1952.058	830.25
1956.267	817.25
1960.472	810.25
1964.673	793.25
1968.87	798.25
1973.063	776.25
1977.252	799.25
1981.438	781.25
1985.619	765.25
1989.797	775.25
1993.971	776.25
1998.14	788.25
2002.306	767.25
2006.469	794.25
2010.627	798.25
2014.781	797.25
2018.932	799.25
2023.078	786.25
2027.221	788.25
2031.36	776.25
2035.495	773.25
2039.627	764.25
2043.754	770.25
2047.878	769.25
2051.998	754.25
2056.114	761.25
2060.226	764.25
2064.334	780.25
2068.439	781.25
2072.54	791.25
2076.637	778.25
2080.73	776.25
2084.82	769.25
2088.906	783.25
2092.988	774.25
2097.066	779.25
2101.14	771.25
2105.211	764.25
2109.278	760.25
2113.342	752.25
2117.401	753.25
2121.457	756.25
2125.509	759.25
2129.558	753.25
2133.602	738.25
2137.643	753.25
2141.681	729.25
2145.714	735.25
2149.744	724.25
2153.77	723.25
2157.793	718.25
2161.812	707.25
2165.827	711.25
2169.838	702.25
2173.846	686.25
2177.851	687.25
2181.851	663.25
2185.848	665.25
2189.841	663.25
2193.831	649.25
2197.817	655.25
2201.799	653.25
2205.778	651.25
2209.753	643.25
2213.725	646.25
2217.693	649.25
2221.657	653.25
2225.618	640.25
2229.575	626.25
2233.529	640.25
2237.479	636.25
2241.425	617.25
2245.368	621.25
2249.307	598.25
2253.243	604.25
2257.175	596.25
2261.104	581.25
2265.029	570.25
2268.95	588.25
2272.868	575.25
2276.783	558.25
2280.694	551.25
2284.601	547.25
2288.505	543.25
2292.405	531.25
2296.302	530.25
2300.195	525.25
2304.085	519.25
2307.971	502.25
2311.854	500.25
2315.734	496.25
2319.609	482.25
2323.482	483.25
2327.351	465.25
2331.216	473.25
2335.078	467.25
2338.937	468.25
2342.792	460.25
2346.643	461.25
2350.492	457.25
2354.336	467.25
2358.178	474.25
2362.015	465.25
2365.85	462.25
2369.681	462.25
2373.508	468.25
2377.333	456.25
2381.153	461.25
2384.971	456.25
2388.785	461.25
2392.595	452.25
2396.402	445.25
2400.206	446.25
2404.007	452.25
2407.804	455.25
2411.597	442.25
2415.388	443.25
2419.174	435.25
2422.958	443.25
2426.738	433.25
2430.515	447.25
2434.289	441.25
2438.059	435.25
2441.825	439.25
2445.589	435.25
2449.349	427.25
2453.106	417.25
2456.859	417.25
2460.61	415.25
2464.356	402.25
2468.1	408.25
2471.84	409.25
2475.577	406.25
2479.311	403.25
2483.041	407.25
2486.768	414.25
2490.492	408.25
2494.213	409.25
2497.93	407.25
2501.644	395.25
2505.355	400.25
2509.062	402.25
2512.766	402.25
2516.467	395.25
2520.165	391.25
2523.859	393.25
2527.551	392.25
2531.239	391.25
2534.923	387.25
2538.605	384.25
2542.283	377.25
2545.958	372.25
2549.63	373.25
2553.299	377.25
2556.964	368.25
2560.626	373.25
2564.285	370.25
2567.941	371.25
2571.594	362.25
2575.243	358.25
2578.89	356.25
2582.533	345.25
2586.173	344.25
2589.809	350.25
2593.443	343.25
2597.073	346.25
2600.701	341.25
2604.325	339.25
2607.946	342.25
2611.564	339.25
2615.178	343.25
2618.79	333.25
2622.398	329.25
2626.004	332.25
2629.606	330.25
2633.205	321.25
2636.801	334.25
2640.394	315.25
2643.983	316.25
2647.57	319.25
2651.153	306.25
2654.734	308.25
2658.311	302.25
2661.885	306.25
2665.456	304.25
2669.025	308.25
2672.589	300.25
2676.151	301.25
2679.71	293.25
2683.266	299.25
2686.819	291.25
2690.368	288.25
2693.915	282.25
2697.458	282.25
2700.999	274.25
2704.536	271.25
2708.071	272.25
2711.602	272.25
2715.13	266.25
2718.656	266.25
2722.178	262.25
2725.697	265.25
2729.214	266.25
2732.727	270.25
2736.237	268.25
2739.744	265.25
2743.249	273.25
2746.75	274.25
2750.248	277.25
2753.743	272.25
2757.236	260.25
2760.725	260.25
2764.211	259.25
2767.695	262.25
2771.175	252.25
2774.652	259.25
2778.127	250.25
2781.598	255.25
2785.067	252.25
2788.532	246.25
2791.995	256.25
2795.455	253.25
2798.911	257.25
2802.365	253.25
2805.816	255.25
2809.264	256.25
2812.709	258.25
2816.151	258.25
2819.59	264.25
2823.026	258.25
2826.46	263.25
2829.89	250.25
2833.318	254.25
2836.742	261.25
2840.164	257.25
2843.583	255.25
2846.999	261.25
2850.412	261.25
2853.822	264.25
2857.229	267.25
2860.634	270.25
2864.035	280.25
2867.434	275.25
2870.83	280.25
2874.223	276.25
2877.613	277.25
2881	279.25
2884.385	286.25
2887.766	277.25
2891.145	281.25
2894.521	275.25
2897.894	279.25
2901.264	285.25
2904.631	274.25
2907.996	285.25
2911.358	285.25
2914.717	285.25
2918.073	281.25
2921.426	295.25
2924.777	310.25
2928.124	295.25
2931.469	308.25
2934.811	317.25
2938.15	316.25
2941.487	325.25
2944.821	319.25
2948.152	329.25
2951.48	333.25
2954.805	333.25
2958.128	337.25
2961.447	351.25
2964.765	351.25
2968.079	352.25
2971.39	357.25
2974.699	368.25
2978.005	378.25
2981.308	384.25
2984.609	398.25
2987.907	400.25
2991.202	404.25
2994.494	425.25
2997.784	431.25
3001.07	445.25
3004.355	440.25
3007.636	458.25
3010.915	466.25
3014.191	476.25
3017.464	482.25
3020.734	488.25
3024.002	492.25
3027.267	503.25
3030.53	517.25
3033.789	530.25
3037.046	550.25
3040.301	535.25
3043.552	555.25
3046.801	564.25
3050.048	574.25
3053.291	597.25
3056.532	623.25
3059.771	623.25
3063.006	648.25
3066.239	678.25
3069.469	681.25
3072.697	708.25
3075.922	719.25
3079.144	743.25
3082.364	770.25
3085.581	774.25
3088.795	797.25
3092.007	812.25
3095.216	821.25
3098.423	833.25
3101.627	863.25
3104.828	891.25
3108.026	883.25
3111.222	919.25
3114.416	942.25
3117.607	961.25
3120.795	974.25
3123.98	994.25
3127.163	1021.25
3130.344	1043.25
3133.521	1070.25
3136.696	1076.25
3139.869	1107.25
3143.039	1121.25
3146.206	1143.25
3149.371	1146.25
3152.533	1168.25
3155.693	1183.25
3158.85	1186.25
3162.005	1188.25
3165.157	1182.25
3168.306	1192.25
3171.453	1191.25
3174.597	1199.25
3177.739	1206.25
3180.878	1217.25
3184.014	1201.25
3187.149	1219.25
3190.28	1225.25
3193.409	1219.25
3196.536	1230.25
3199.659	1227.25
3202.781	1243.25
3205.9	1240.25
3209.016	1235.25
3212.13	1212.25
3215.241	1204.25
3218.35	1199.25
3221.456	1201.25
3224.56	1197.25
3227.661	1178.25
3230.76	1166.25
3233.856	1156.25
3236.95	1151.25
3240.041	1148.25
3243.13	1117.25
3246.216	1121.25
3249.3	1120.25
3252.382	1117.25
3255.46	1099.25
3258.537	1092.25
3261.611	1090.25
3264.682	1085.25
3267.751	1085.25
3270.818	1082.25
3273.882	1074.25
3276.943	1061.25
3280.002	1058.25
3283.059	1047.25
3286.113	1044.25
3289.165	1028.25
3292.214	1005.25
3295.261	992.25
3298.306	981.25
3301.348	972.25
3304.387	952.25
3307.425	937.25
3310.459	922.25
3313.492	901.25
3316.521	897.25
3319.549	895.25
3322.574	881.25
3325.597	869.25
3328.617	869.25
3331.635	862.25
3334.65	859.25
3337.663	855.25
3340.674	858.25
3343.682	852.25
3346.688	851.25
3349.691	836.25
3352.692	837.25
3355.691	831.25
3358.687	819.25
3361.681	818.25
3364.673	805.25
3367.662	788.25
3370.649	782.25
3373.633	768.25
3376.615	766.25
3379.595	766.25
3382.572	750.25
3385.547	735.25
3388.52	730.25
3391.49	713.25
3394.458	705.25
3397.424	709.25
3400.387	691.25
3403.348	676.25
3406.307	664.25
3409.263	661.25
3412.217	649.25
3415.168	638.25
3418.118	635.25
3421.065	638.25
3424.009	624.25
3426.951	614.25
3429.891	611.25
3432.829	583.25
3435.764	586.25
3438.697	568.25
3441.628	556.25
3444.557	541.25
3447.483	516.25
3450.407	512.25
3453.328	502.25
3456.247	486.25
3459.164	467.25
3462.079	452.25
3464.991	438.25
3467.902	429.25
3470.809	414.25
3473.715	399.25
3476.618	391.25
3479.519	365.25
3482.418	361.25
3485.315	355.25
3488.209	347.25
3491.101	338.25
3493.99	324.25
3496.878	320.25
3499.763	302.25
3502.646	297.25
3505.527	286.25
3508.405	270.25
3511.281	251.25
3514.155	257.25
3517.027	239.25
3519.897	228.25
3522.764	216.25
3525.629	198.25
3528.492	196.25
3531.352	176.25
3534.211	163.25
3537.067	163.25
3539.921	147.25
3542.773	130.25
3545.622	133.25
3548.469	124.25
3551.315	116.25
3554.157	107.25
3556.998	94.25
3559.837	90.25
3562.673	78.25
3565.507	82.25
3568.339	77.25
3571.169	67.25
3573.996	60.25
3576.822	56.25
3579.645	48.25
3582.466	45.25
3585.285	40.25
3588.101	38.25
3590.916	35.25
3593.728	28.25
3596.538	22.25
3599.346	13.25
3602.152	13.25
3604.956	7.25
3607.757	5.25
3610.556	-10.75
3613.354	-6.75
3616.149	-15.75
3618.942	-15.75
3621.732	-21.75
3624.521	-20.75
3627.307	-21.75
3630.092	-27.75
3632.874	-27.75
3635.654	-29.75
3638.432	-34.75
3641.208	-38.75
3643.982	-33.75
3646.753	-40.75
3649.523	-45.75
3652.29	-44.75
3655.055	-49.75
3657.818	-48.75
3660.579	-52.75
3663.338	-61.75
3666.095	-60.75
3668.849	-57.75
3671.602	-64.75
3674.352	-71.75
3677.101	-68.75
3679.847	-74.75
3682.591	-74.75
3685.333	-74.75
3688.073	-75.75
3690.811	-73.75
3693.547	-66.75
3696.281	-74.75
3699.013	-76.75
3701.742	-83.75
3704.47	-83.75
3707.195	-83.75
3709.919	-85.75
3712.64	-87.75
3715.359	-86.75
3718.076	-88.75
3720.792	-88.75
3723.505	-88.75
3726.216	-87.75
3728.925	-89.75
3731.632	-89.75
3734.336	-94.75
3737.039	-94.75
3739.74	-93.75
3742.439	-95.75
3745.136	-93.75
3747.83	-93.75
3750.523	-90.75
3753.213	-97.75
3755.902	-95.75
3758.589	-98.75
3761.273	-98.75
3763.956	-98.75
3766.636	-100.75
3769.315	-102.75
3771.991	-103.75
3774.665	-102.75
3777.338	-101.75
3780.008	-98.75
3782.677	-94.75
3785.343	-101.75
3788.007	-102.75
3790.67	-100.75
3793.33	-103.75
3795.989	-102.75
3798.645	-105.75
3801.299	-107.75
3803.952	-106.75
3806.602	-108.75
3809.251	-108.75
3811.897	-105.75
3814.542	-105.75
3817.184	-104.75
3819.825	-103.75
3822.463	-108.75
3825.1	-106.75
3827.735	-107.75
3830.367	-108.75
3832.998	-106.75
3835.627	-108.75
3838.253	-108.75
3840.878	-103.75
3843.501	-105.75
3846.122	-107.75
3848.741	-109.75
3851.358	-110.75
3853.973	-115.75
3856.586	-110.75
3859.197	-111.75
3861.806	-112.75
3864.414	-112.75
3867.019	-110.75
3869.622	-109.75
3872.224	-110.75
3874.823	-105.75
3877.421	-101.75
3880.016	-100.75
3882.61	-101.75
3885.202	-102.75
3887.792	-100.75
3890.38	-106.75
3892.966	-111.75
3895.55	-110.75
3898.132	-110.75
3900.713	-112.75
3903.291	-112.75
3905.868	-114.75
3908.442	-110.75
3911.015	-114.75
3913.586	-114.75
3916.155	-114.75
3918.722	-115.75
3921.287	-113.75
3923.85	-112.75
3926.411	-113.75
3928.971	-111.75
3931.528	-111.75
3934.084	-111.75
3936.638	-115.75
3939.19	-115.75
3941.74	-113.75
3944.288	-115.75
3946.834	-120.75
3949.378	-116.75
3951.921	-118.75
3954.462	-118.75
3957	-114.75
3959.537	-115.75
3962.072	-113.75
3964.606	-110.75
3967.137	-113.75
3969.667	-114.75
3972.194	-114.75
3974.72	-116.75
3977.244	-115.75
3979.766	-117.75
3982.286	-112.75
3984.805	-111.75
3987.321	-110.75
3989.836	-112.75
3992.349	-111.75
3994.86	-116.75
3997.369	-113.75
3999.877	-114.75
4002.382	-111.75
4004.886	-112.75
4007.388	-111.75
4009.888	-115.75
4012.386	-113.75
4014.883	-109.75
4017.377	-111.75
4019.87	-108.75
4022.361	-108.75
4024.85	-111.75
4027.338	-113.75
4029.823	-114.75
4032.307	-116.75
4034.789	-113.75
4037.269	-115.75
4039.747	-115.75
4042.224	-115.75
4044.699	-114.75
4047.172	-113.75
4049.643	-111.75
4052.112	-112.75
4054.58	-113.75
4057.046	-110.75
4059.51	-114.75
4061.972	-114.75
4064.432	-115.75
4066.891	-114.75
4069.348	-110.75
4071.803	-115.75
4074.256	-114.75
4076.708	-113.75
4079.158	-114.75
4081.606	-114.75
4084.052	-114.75
4086.497	-113.75
4088.939	-117.75
4091.38	-114.75
4093.819	-116.75
4096.257	-113.75
4098.693	-112.75
4101.127	-117.75
4103.559	-119.75
4105.989	-80.75
4108.418	-73.75
4110.845	-71.75
4113.27	-64.75
4115.694	-57.75
4118.115	-51.75
4120.535	-114.75
4122.954	-114.75
4125.37	-112.75
4127.785	-113.75
4130.198	-111.75
4132.609	-111.75
4135.019	-114.75
4137.427	-111.75
4139.833	-120.75
4142.237	-119.75
