Data from 1CFU1_A_RamanShift_1.txt Node
Date: Tue Jan 24 17:09:56 IST 2017
User: aro
Spectrometer: QEPB0276
Trigger mode: 0
Integration Time (sec): 5.000000E0
Scans to average: 1
Electric dark correction enabled: true
Nonlinearity correction enabled: false
Boxcar width: 0
XAxis mode: Raman Shifts
Number of Pixels in Spectrum: 1044
>>>>>Begin Spectral Data<<<<<
160.701	-35.25
166.742	-3.25
172.777	94.75
178.805	381.75
184.826	1059.75
190.841	2197.75
196.849	3443.75
202.85	4236.75
208.845	4412.75
214.833	4268.75
220.815	4093.75
226.789	4007.75
232.758	3858.75
238.719	3765.75
244.674	3618.75
250.623	3488.75
256.565	3314.75
262.5	3146.75
268.429	3036.75
274.351	2894.75
280.267	2818.75
286.176	2700.75
292.079	2611.75
297.975	2531.75
303.865	2451.75
309.748	2385.75
315.625	2343.75
321.495	2271.75
327.359	2268.75
333.217	2232.75
339.068	2200.75
344.912	2199.75
350.751	2174.75
356.583	2186.75
362.408	2161.75
368.227	2171.75
374.04	2188.75
379.847	2168.75
385.647	2206.75
391.44	2226.75
397.228	2216.75
403.009	2234.75
408.784	2231.75
414.553	2239.75
420.315	2265.75
426.071	2276.75
431.821	2255.75
437.565	2258.75
443.302	2234.75
449.033	2249.75
454.758	2241.75
460.477	2234.75
466.189	2215.75
471.896	2197.75
477.596	2192.75
483.29	2184.75
488.978	2166.75
494.66	2172.75
500.335	2135.75
506.005	2106.75
511.668	2056.75
517.325	2017.75
522.977	1990.75
528.622	1950.75
534.261	1940.75
539.894	1917.75
545.521	1918.75
551.141	1907.75
556.756	1884.75
562.365	1873.75
567.968	1848.75
573.565	1844.75
579.155	1838.75
584.74	1823.75
590.319	1817.75
595.892	1800.75
601.459	1781.75
607.02	1767.75
612.575	1769.75
618.124	1761.75
623.667	1733.75
629.204	1704.75
634.735	1699.75
640.261	1691.75
645.781	1672.75
651.294	1673.75
656.802	1650.75
662.304	1652.75
667.8	1657.75
673.29	1642.75
678.775	1648.75
684.254	1638.75
689.726	1635.75
695.193	1615.75
700.655	1616.75
706.11	1601.75
711.56	1587.75
717.004	1587.75
722.442	1577.75
727.874	1563.75
733.301	1564.75
738.722	1546.75
744.137	1536.75
749.547	1542.75
754.951	1556.75
760.349	1531.75
765.741	1524.75
771.128	1526.75
776.509	1527.75
781.885	1518.75
787.254	1538.75
792.618	1517.75
797.977	1508.75
803.33	1482.75
808.677	1479.75
814.019	1468.75
819.355	1452.75
824.686	1444.75
830.011	1439.75
835.33	1427.75
840.644	1404.75
845.952	1421.75
851.255	1420.75
856.552	1418.75
861.844	1409.75
867.13	1388.75
872.41	1384.75
877.686	1377.75
882.955	1351.75
888.219	1336.75
893.478	1321.75
898.731	1305.75
903.979	1276.75
909.221	1263.75
914.458	1245.75
919.69	1257.75
924.916	1253.75
930.136	1258.75
935.351	1261.75
940.561	1242.75
945.766	1256.75
950.965	1236.75
956.158	1210.75
961.347	1219.75
966.529	1183.75
971.707	1181.75
976.879	1159.75
982.046	1156.75
987.208	1145.75
992.364	1154.75
997.515	1146.75
1002.66	1151.75
1007.801	1152.75
1012.936	1174.75
1018.066	1178.75
1023.19	1196.75
1028.309	1183.75
1033.423	1193.75
1038.532	1191.75
1043.636	1179.75
1048.734	1168.75
1053.827	1163.75
1058.915	1142.75
1063.998	1147.75
1069.075	1142.75
1074.147	1149.75
1079.214	1156.75
1084.276	1157.75
1089.333	1174.75
1094.385	1173.75
1099.431	1187.75
1104.472	1181.75
1109.509	1175.75
1114.54	1156.75
1119.565	1139.75
1124.586	1132.75
1129.602	1114.75
1134.613	1123.75
1139.618	1121.75
1144.619	1112.75
1149.614	1135.75
1154.604	1124.75
1159.589	1146.75
1164.57	1130.75
1169.545	1135.75
1174.515	1122.75
1179.48	1147.75
1184.44	1119.75
1189.395	1121.75
1194.345	1111.75
1199.29	1110.75
1204.23	1116.75
1209.165	1119.75
1214.095	1133.75
1219.021	1130.75
1223.941	1143.75
1228.856	1157.75
1233.766	1162.75
1238.672	1154.75
1243.572	1160.75
1248.467	1144.75
1253.358	1124.75
1258.244	1101.75
1263.124	1103.75
1268	1105.75
1272.871	1070.75
1277.737	1073.75
1282.599	1070.75
1287.455	1077.75
1292.306	1082.75
1297.153	1094.75
1301.995	1085.75
1306.832	1092.75
1311.664	1116.75
1316.491	1099.75
1321.314	1092.75
1326.132	1072.75
1330.945	1068.75
1335.753	1062.75
1340.556	1054.75
1345.354	1041.75
1350.148	1038.75
1354.937	1033.75
1359.722	1016.75
1364.501	1012.75
1369.276	999.75
1374.046	997.75
1378.811	988.75
1383.572	982.75
1388.327	971.75
1393.079	982.75
1397.825	974.75
1402.567	974.75
1407.304	959.75
1412.036	962.75
1416.764	961.75
1421.487	965.75
1426.205	967.75
1430.919	982.75
1435.628	987.75
1440.333	1005.75
1445.032	1010.75
1449.727	1007.75
1454.418	1010.75
1459.104	1010.75
1463.785	1001.75
1468.462	996.75
1473.134	982.75
1477.802	982.75
1482.465	972.75
1487.123	963.75
1491.777	975.75
1496.426	969.75
1501.071	975.75
1505.711	989.75
1510.347	993.75
1514.978	1008.75
1519.604	1009.75
1524.226	1021.75
1528.844	1009.75
1533.457	1010.75
1538.065	1026.75
1542.669	1003.75
1547.269	1018.75
1551.864	1003.75
1556.454	1021.75
1561.041	1028.75
1565.622	1046.75
1570.199	1052.75
1574.772	1074.75
1579.34	1095.75
1583.904	1108.75
1588.464	1120.75
1593.019	1139.75
1597.569	1151.75
1602.115	1165.75
1606.657	1182.75
1611.195	1185.75
1615.728	1185.75
1620.256	1223.75
1624.78	1231.75
1629.3	1248.75
1633.816	1263.75
1638.327	1284.75
1642.834	1306.75
1647.336	1301.75
1651.834	1315.75
1656.328	1310.75
1660.817	1280.75
1665.302	1272.75
1669.783	1238.75
1674.259	1220.75
1678.732	1173.75
1683.199	1133.75
1687.663	1096.75
1692.122	1066.75
1696.577	1018.75
1701.028	969.75
1705.474	931.75
1709.917	912.75
1714.355	899.75
1718.788	864.75
1723.218	862.75
1727.643	849.75
1732.064	821.75
1736.481	806.75
1740.893	801.75
1745.301	781.75
1749.705	757.75
1754.105	732.75
1758.501	732.75
1762.893	696.75
1767.28	709.75
1771.663	691.75
1776.042	687.75
1780.417	685.75
1784.787	665.75
1789.154	679.75
1793.516	682.75
1797.874	675.75
1802.228	670.75
1806.578	667.75
1810.924	657.75
1815.266	636.75
1819.603	638.75
1823.937	630.75
1828.266	626.75
1832.591	627.75
1836.913	622.75
1841.23	624.75
1845.543	622.75
1849.852	626.75
1854.156	623.75
1858.457	618.75
1862.754	623.75
1867.047	625.75
1871.335	634.75
1875.62	631.75
1879.9	619.75
1884.177	629.75
1888.449	627.75
1892.718	620.75
1896.982	631.75
1901.243	618.75
1905.499	615.75
1909.752	611.75
1914	606.75
1918.245	620.75
1922.485	600.75
1926.722	621.75
1930.954	618.75
1935.183	621.75
1939.408	623.75
1943.628	631.75
1947.845	629.75
1952.058	613.75
1956.267	617.75
1960.472	614.75
1964.673	600.75
1968.87	600.75
1973.063	596.75
1977.252	588.75
1981.438	586.75
1985.619	586.75
1989.797	580.75
1993.971	594.75
1998.14	592.75
2002.306	595.75
2006.469	607.75
2010.627	597.75
2014.781	601.75
2018.932	602.75
2023.078	614.75
2027.221	602.75
2031.36	601.75
2035.495	589.75
2039.627	579.75
2043.754	577.75
2047.878	581.75
2051.998	577.75
2056.114	582.75
2060.226	584.75
2064.334	590.75
2068.439	595.75
2072.54	592.75
2076.637	606.75
2080.73	601.75
2084.82	600.75
2088.906	595.75
2092.988	591.75
2097.066	591.75
2101.14	580.75
2105.211	586.75
2109.278	576.75
2113.342	576.75
2117.401	573.75
2121.457	577.75
2125.509	571.75
2129.558	578.75
2133.602	581.75
2137.643	569.75
2141.681	557.75
2145.714	557.75
2149.744	549.75
2153.77	562.75
2157.793	553.75
2161.812	545.75
2165.827	553.75
2169.838	541.75
2173.846	530.75
2177.851	524.75
2181.851	516.75
2185.848	512.75
2189.841	510.75
2193.831	495.75
2197.817	505.75
2201.799	502.75
2205.778	496.75
2209.753	500.75
2213.725	498.75
2217.693	496.75
2221.657	496.75
2225.618	496.75
2229.575	490.75
2233.529	482.75
2237.479	484.75
2241.425	470.75
2245.368	458.75
2249.307	463.75
2253.243	451.75
2257.175	449.75
2261.104	450.75
2265.029	434.75
2268.95	434.75
2272.868	430.75
2276.783	416.75
2280.694	409.75
2284.601	413.75
2288.505	411.75
2292.405	403.75
2296.302	396.75
2300.195	393.75
2304.085	390.75
2307.971	378.75
2311.854	383.75
2315.734	377.75
2319.609	360.75
2323.482	362.75
2327.351	360.75
2331.216	355.75
2335.078	356.75
2338.937	351.75
2342.792	343.75
2346.643	335.75
2350.492	341.75
2354.336	349.75
2358.178	344.75
2362.015	347.75
2365.85	350.75
2369.681	350.75
2373.508	349.75
2377.333	344.75
2381.153	346.75
2384.971	349.75
2388.785	344.75
2392.595	342.75
2396.402	344.75
2400.206	343.75
2404.007	340.75
2407.804	335.75
2411.597	336.75
2415.388	323.75
2419.174	325.75
2422.958	329.75
2426.738	328.75
2430.515	328.75
2434.289	325.75
2438.059	326.75
2441.825	320.75
2445.589	328.75
2449.349	327.75
2453.106	326.75
2456.859	316.75
2460.61	308.75
2464.356	300.75
2468.1	311.75
2471.84	296.75
2475.577	309.75
2479.311	298.75
2483.041	305.75
2486.768	306.75
2490.492	302.75
2494.213	301.75
2497.93	294.75
2501.644	303.75
2505.355	302.75
2509.062	300.75
2512.766	306.75
2516.467	298.75
2520.165	297.75
2523.859	296.75
2527.551	297.75
2531.239	286.75
2534.923	287.75
2538.605	281.75
2542.283	271.75
2545.958	274.75
2549.63	273.75
2553.299	264.75
2556.964	264.75
2560.626	270.75
2564.285	270.75
2567.941	270.75
2571.594	271.75
2575.243	266.75
2578.89	271.75
2582.533	258.75
2586.173	256.75
2589.809	246.75
2593.443	257.75
2597.073	250.75
2600.701	248.75
2604.325	239.75
2607.946	243.75
2611.564	253.75
2615.178	247.75
2618.79	240.75
2622.398	241.75
2626.004	241.75
2629.606	245.75
2633.205	235.75
2636.801	229.75
2640.394	238.75
2643.983	240.75
2647.57	232.75
2651.153	229.75
2654.734	230.75
2658.311	218.75
2661.885	221.75
2665.456	211.75
2669.025	222.75
2672.589	212.75
2676.151	210.75
2679.71	215.75
2683.266	214.75
2686.819	203.75
2690.368	199.75
2693.915	198.75
2697.458	201.75
2700.999	208.75
2704.536	200.75
2708.071	195.75
2711.602	184.75
2715.13	198.75
2718.656	191.75
2722.178	194.75
2725.697	193.75
2729.214	184.75
2732.727	190.75
2736.237	199.75
2739.744	190.75
2743.249	183.75
2746.75	189.75
2750.248	186.75
2753.743	190.75
2757.236	187.75
2760.725	182.75
2764.211	183.75
2767.695	181.75
2771.175	179.75
2774.652	182.75
2778.127	175.75
2781.598	184.75
2785.067	186.75
2788.532	190.75
2791.995	183.75
2795.455	183.75
2798.911	185.75
2802.365	181.75
2805.816	188.75
2809.264	182.75
2812.709	184.75
2816.151	192.75
2819.59	183.75
2823.026	196.75
2826.46	196.75
2829.89	196.75
2833.318	198.75
2836.742	189.75
2840.164	194.75
2843.583	194.75
2846.999	189.75
2850.412	199.75
2853.822	198.75
2857.229	201.75
2860.634	200.75
2864.035	206.75
2867.434	210.75
2870.83	218.75
2874.223	211.75
2877.613	218.75
2881	213.75
2884.385	222.75
2887.766	220.75
2891.145	224.75
2894.521	224.75
2897.894	227.75
2901.264	222.75
2904.631	229.75
2907.996	230.75
2911.358	228.75
2914.717	234.75
2918.073	233.75
2921.426	243.75
2924.777	239.75
2928.124	247.75
2931.469	246.75
2934.811	265.75
2938.15	267.75
2941.487	274.75
2944.821	272.75
2948.152	279.75
2951.48	278.75
2954.805	289.75
2958.128	285.75
2961.447	292.75
2964.765	292.75
2968.079	296.75
2971.39	303.75
2974.699	313.75
2978.005	317.75
2981.308	327.75
2984.609	337.75
2987.907	355.75
2991.202	352.75
2994.494	374.75
2997.784	371.75
3001.07	389.75
3004.355	394.75
3007.636	402.75
3010.915	408.75
3014.191	420.75
3017.464	426.75
3020.734	441.75
3024.002	438.75
3027.267	449.75
3030.53	470.75
3033.789	467.75
3037.046	472.75
3040.301	490.75
3043.552	508.75
3046.801	510.75
3050.048	528.75
3053.291	534.75
3056.532	558.75
3059.771	566.75
3063.006	584.75
3066.239	614.75
3069.469	630.75
3072.697	650.75
3075.922	664.75
3079.144	684.75
3082.364	704.75
3085.581	707.75
3088.795	732.75
3092.007	752.75
3095.216	766.75
3098.423	770.75
3101.627	804.75
3104.828	813.75
3108.026	827.75
3111.222	843.75
3114.416	855.75
3117.607	893.75
3120.795	912.75
3123.98	928.75
3127.163	954.75
3130.344	960.75
3133.521	996.75
3136.696	1001.75
3139.869	1031.75
3143.039	1056.75
3146.206	1072.75
3149.371	1086.75
3152.533	1089.75
3155.693	1102.75
3158.85	1106.75
3162.005	1103.75
3165.157	1120.75
3168.306	1116.75
3171.453	1119.75
3174.597	1115.75
3177.739	1149.75
3180.878	1136.75
3184.014	1139.75
3187.149	1172.75
3190.28	1143.75
3193.409	1149.75
3196.536	1146.75
3199.659	1154.75
3202.781	1149.75
3205.9	1161.75
3209.016	1153.75
3212.13	1146.75
3215.241	1149.75
3218.35	1138.75
3221.456	1130.75
3224.56	1120.75
3227.661	1106.75
3230.76	1089.75
3233.856	1090.75
3236.95	1087.75
3240.041	1072.75
3243.13	1055.75
3246.216	1048.75
3249.3	1047.75
3252.382	1041.75
3255.46	1020.75
3258.537	1016.75
3261.611	1030.75
3264.682	1021.75
3267.751	1020.75
3270.818	999.75
3273.882	1002.75
3276.943	988.75
3280.002	977.75
3283.059	977.75
3286.113	974.75
3289.165	953.75
3292.214	935.75
3295.261	925.75
3298.306	913.75
3301.348	907.75
3304.387	901.75
3307.425	890.75
3310.459	870.75
3313.492	857.75
3316.521	861.75
3319.549	847.75
3322.574	840.75
3325.597	815.75
3328.617	817.75
3331.635	809.75
3334.65	814.75
3337.663	807.75
3340.674	807.75
3343.682	793.75
3346.688	795.75
3349.691	794.75
3352.692	783.75
3355.691	783.75
3358.687	771.75
3361.681	764.75
3364.673	762.75
3367.662	749.75
3370.649	731.75
3373.633	727.75
3376.615	715.75
3379.595	707.75
3382.572	694.75
3385.547	696.75
3388.52	685.75
3391.49	675.75
3394.458	665.75
3397.424	658.75
3400.387	646.75
3403.348	637.75
3406.307	636.75
3409.263	625.75
3412.217	623.75
3415.168	595.75
3418.118	605.75
3421.065	591.75
3424.009	588.75
3426.951	575.75
3429.891	574.75
3432.829	561.75
3435.764	540.75
3438.697	531.75
3441.628	528.75
3444.557	504.75
3447.483	491.75
3450.407	484.75
3453.328	460.75
3456.247	453.75
3459.164	438.75
3462.079	422.75
3464.991	414.75
3467.902	396.75
3470.809	378.75
3473.715	371.75
3476.618	366.75
3479.519	341.75
3482.418	333.75
3485.315	328.75
3488.209	324.75
3491.101	311.75
3493.99	300.75
3496.878	291.75
3499.763	278.75
3502.646	274.75
3505.527	258.75
3508.405	250.75
3511.281	238.75
3514.155	230.75
3517.027	224.75
3519.897	202.75
3522.764	196.75
3525.629	181.75
3528.492	176.75
3531.352	163.75
3534.211	161.75
3537.067	140.75
3539.921	134.75
3542.773	128.75
3545.622	122.75
3548.469	115.75
3551.315	98.75
3554.157	95.75
3556.998	91.75
3559.837	82.75
3562.673	78.75
3565.507	73.75
3568.339	66.75
3571.169	59.75
3573.996	51.75
3576.822	52.75
3579.645	43.75
3582.466	41.75
3585.285	30.75
3588.101	28.75
3590.916	22.75
3593.728	20.75
3596.538	13.75
3599.346	11.75
3602.152	9.75
3604.956	-0.25
3607.757	-3.25
3610.556	-8.25
3613.354	-4.25
3616.149	-12.25
3618.942	-18.25
3621.732	-18.25
3624.521	-16.25
3627.307	-19.25
3630.092	-24.25
3632.874	-30.25
3635.654	-22.25
3638.432	-34.25
3641.208	-36.25
3643.982	-37.25
3646.753	-33.25
3649.523	-43.25
3652.29	-46.25
3655.055	-47.25
3657.818	-49.25
3660.579	-47.25
3663.338	-53.25
3666.095	-58.25
3668.849	-55.25
3671.602	-56.25
3674.352	-62.25
3677.101	-65.25
3679.847	-68.25
3682.591	-68.25
3685.333	-69.25
3688.073	-73.25
3690.811	-77.25
3693.547	-69.25
3696.281	-78.25
3699.013	-74.25
3701.742	-78.25
3704.47	-78.25
3707.195	-80.25
3709.919	-78.25
3712.64	-78.25
3715.359	-82.25
3718.076	-82.25
3720.792	-83.25
3723.505	-83.25
3726.216	-88.25
3728.925	-85.25
3731.632	-86.25
3734.336	-90.25
3737.039	-89.25
3739.74	-89.25
3742.439	-90.25
3745.136	-91.25
3747.83	-91.25
3750.523	-87.25
3753.213	-90.25
3755.902	-90.25
3758.589	-90.25
3761.273	-92.25
3763.956	-95.25
3766.636	-95.25
3769.315	-98.25
3771.991	-100.25
3774.665	-97.25
3777.338	-95.25
3780.008	-97.25
3782.677	-94.25
3785.343	-93.25
3788.007	-97.25
3790.67	-96.25
3793.33	-97.25
3795.989	-97.25
3798.645	-95.25
3801.299	-99.25
3803.952	-99.25
3806.602	-101.25
3809.251	-101.25
3811.897	-98.25
3814.542	-99.25
3817.184	-98.25
3819.825	-100.25
3822.463	-104.25
3825.1	-102.25
3827.735	-102.25
3830.367	-103.25
3832.998	-102.25
3835.627	-99.25
3838.253	-102.25
3840.878	-99.25
3843.501	-98.25
3846.122	-101.25
3848.741	-105.25
3851.358	-104.25
3853.973	-102.25
3856.586	-102.25
3859.197	-102.25
3861.806	-105.25
3864.414	-107.25
3867.019	-100.25
3869.622	-99.25
3872.224	-98.25
3874.823	-101.25
3877.421	-93.25
3880.016	-95.25
3882.61	-93.25
3885.202	-92.25
3887.792	-94.25
3890.38	-100.25
3892.966	-105.25
3895.55	-106.25
3898.132	-107.25
3900.713	-109.25
3903.291	-104.25
3905.868	-107.25
3908.442	-106.25
3911.015	-107.25
3913.586	-106.25
3916.155	-104.25
3918.722	-104.25
3921.287	-109.25
3923.85	-108.25
3926.411	-111.25
3928.971	-105.25
3931.528	-104.25
3934.084	-109.25
3936.638	-110.25
3939.19	-109.25
3941.74	-110.25
3944.288	-112.25
3946.834	-111.25
3949.378	-106.25
3951.921	-108.25
3954.462	-111.25
3957	-105.25
3959.537	-104.25
3962.072	-102.25
3964.606	-105.25
3967.137	-106.25
3969.667	-108.25
3972.194	-107.25
3974.72	-109.25
3977.244	-112.25
3979.766	-111.25
3982.286	-108.25
3984.805	-106.25
3987.321	-102.25
3989.836	-102.25
3992.349	-103.25
3994.86	-105.25
3997.369	-101.25
3999.877	-104.25
4002.382	-103.25
4004.886	-105.25
4007.388	-105.25
4009.888	-107.25
4012.386	-109.25
4014.883	-106.25
4017.377	-107.25
4019.87	-103.25
4022.361	-104.25
4024.85	-105.25
4027.338	-108.25
4029.823	-105.25
4032.307	-106.25
4034.789	-106.25
4037.269	-103.25
4039.747	-107.25
4042.224	-108.25
4044.699	-108.25
4047.172	-106.25
4049.643	-105.25
4052.112	-107.25
4054.58	-108.25
4057.046	-108.25
4059.51	-107.25
4061.972	-109.25
4064.432	-107.25
4066.891	-106.25
4069.348	-104.25
4071.803	-105.25
4074.256	-105.25
4076.708	-108.25
4079.158	-105.25
4081.606	-105.25
4084.052	-104.25
4086.497	-104.25
4088.939	-112.25
4091.38	-108.25
4093.819	-110.25
4096.257	-109.25
4098.693	-107.25
4101.127	-112.25
4103.559	-111.25
4105.989	-72.25
4108.418	-68.25
4110.845	-63.25
4113.27	-61.25
4115.694	-51.25
4118.115	-52.25
4120.535	-110.25
4122.954	-106.25
4125.37	-105.25
4127.785	-108.25
4130.198	-107.25
4132.609	-105.25
4135.019	-110.25
4137.427	-106.25
4139.833	-109.25
4142.237	-112.25
