Data from 171017-reg-ec2_RamanShift_0.txt Node
Date: Tue Oct 17 12:19:42 IDT 2017
User: aro
Spectrometer: QEPB0276
Trigger mode: 0
Integration Time (sec): 5.000000E0
Scans to average: 1
Electric dark correction enabled: true
Nonlinearity correction enabled: false
Boxcar width: 0
XAxis mode: Raman Shifts
Number of Pixels in Spectrum: 1044
>>>>>Begin Spectral Data<<<<<
160.701	2.12
166.742	4.12
172.777	12.12
178.805	28.12
184.826	72.12
190.841	159.12
196.849	271.12
202.85	358.12
208.845	411.12
214.833	409.12
220.815	416.12
226.789	421.12
232.758	433.12
238.719	447.12
244.674	453.12
250.623	456.12
256.565	453.12
262.5	448.12
268.429	462.12
274.351	462.12
280.267	460.12
286.176	473.12
292.079	473.12
297.975	475.12
303.865	481.12
309.748	486.12
315.625	495.12
321.495	482.12
327.359	484.12
333.217	477.12
339.068	474.12
344.912	471.12
350.751	464.12
356.583	467.12
362.408	474.12
368.227	468.12
374.04	472.12
379.847	480.12
385.647	485.12
391.44	485.12
397.228	468.12
403.009	482.12
408.784	480.12
414.553	505.12
420.315	522.12
426.071	529.12
431.821	506.12
437.565	486.12
443.302	476.12
449.033	470.12
454.758	458.12
460.477	460.12
466.189	465.12
471.896	439.12
477.596	447.12
483.29	440.12
488.978	430.12
494.66	426.12
500.335	410.12
506.005	392.12
511.668	397.12
517.325	416.12
522.977	460.12
528.622	492.12
534.261	508.12
539.894	506.12
545.521	496.12
551.141	488.12
556.756	484.12
562.365	485.12
567.968	480.12
573.565	485.12
579.155	483.12
584.74	475.12
590.319	469.12
595.892	459.12
601.459	468.12
607.02	447.12
612.575	455.12
618.124	449.12
623.667	454.12
629.204	454.12
634.735	452.12
640.261	468.12
645.781	475.12
651.294	482.12
656.802	481.12
662.304	465.12
667.8	465.12
673.29	467.12
678.775	471.12
684.254	461.12
689.726	467.12
695.193	463.12
700.655	463.12
706.11	461.12
711.56	459.12
717.004	468.12
722.442	462.12
727.874	461.12
733.301	462.12
738.722	459.12
744.137	467.12
749.547	465.12
754.951	463.12
760.349	465.12
765.741	463.12
771.128	467.12
776.509	468.12
781.885	467.12
787.254	468.12
792.618	464.12
797.977	468.12
803.33	471.12
808.677	464.12
814.019	467.12
819.355	463.12
824.686	462.12
830.011	453.12
835.33	452.12
840.644	463.12
845.952	462.12
851.255	463.12
856.552	466.12
861.844	468.12
867.13	461.12
872.41	466.12
877.686	462.12
882.955	468.12
888.219	463.12
893.478	462.12
898.731	461.12
903.979	455.12
909.221	453.12
914.458	464.12
919.69	458.12
924.916	471.12
930.136	475.12
935.351	484.12
940.561	493.12
945.766	495.12
950.965	495.12
956.158	498.12
961.347	491.12
966.529	489.12
971.707	477.12
976.879	484.12
982.046	465.12
987.208	470.12
992.364	467.12
997.515	465.12
1002.66	471.12
1007.801	475.12
1012.936	486.12
1018.066	488.12
1023.19	492.12
1028.309	495.12
1033.423	490.12
1038.532	493.12
1043.636	489.12
1048.734	475.12
1053.827	477.12
1058.915	480.12
1063.998	473.12
1069.075	476.12
1074.147	492.12
1079.214	483.12
1084.276	488.12
1089.333	486.12
1094.385	500.12
1099.431	506.12
1104.472	504.12
1109.509	504.12
1114.54	504.12
1119.565	494.12
1124.586	494.12
1129.602	482.12
1134.613	486.12
1139.618	495.12
1144.619	490.12
1149.614	491.12
1154.604	502.12
1159.589	500.12
1164.57	512.12
1169.545	521.12
1174.515	514.12
1179.48	507.12
1184.44	507.12
1189.395	508.12
1194.345	508.12
1199.29	514.12
1204.23	506.12
1209.165	518.12
1214.095	519.12
1219.021	519.12
1223.941	533.12
1228.856	537.12
1233.766	531.12
1238.672	540.12
1243.572	544.12
1248.467	545.12
1253.358	542.12
1258.244	529.12
1263.124	528.12
1268	525.12
1272.871	526.12
1277.737	506.12
1282.599	513.12
1287.455	514.12
1292.306	515.12
1297.153	525.12
1301.995	530.12
1306.832	534.12
1311.664	535.12
1316.491	549.12
1321.314	540.12
1326.132	545.12
1330.945	548.12
1335.753	543.12
1340.556	537.12
1345.354	535.12
1350.148	535.12
1354.937	530.12
1359.722	515.12
1364.501	508.12
1369.276	499.12
1374.046	494.12
1378.811	476.12
1383.572	474.12
1388.327	475.12
1393.079	470.12
1397.825	475.12
1402.567	479.12
1407.304	479.12
1412.036	487.12
1416.764	482.12
1421.487	487.12
1426.205	495.12
1430.919	506.12
1435.628	515.12
1440.333	523.12
1445.032	527.12
1449.727	529.12
1454.418	527.12
1459.104	534.12
1463.785	522.12
1468.462	520.12
1473.134	527.12
1477.802	527.12
1482.465	519.12
1487.123	514.12
1491.777	518.12
1496.426	517.12
1501.071	529.12
1505.711	530.12
1510.347	528.12
1514.978	515.12
1519.604	509.12
1524.226	503.12
1528.844	494.12
1533.457	492.12
1538.065	486.12
1542.669	479.12
1547.269	477.12
1551.864	472.12
1556.454	475.12
1561.041	481.12
1565.622	481.12
1570.199	484.12
1574.772	492.12
1579.34	497.12
1583.904	498.12
1588.464	488.12
1593.019	500.12
1597.569	500.12
1602.115	488.12
1606.657	480.12
1611.195	477.12
1615.728	478.12
1620.256	483.12
1624.78	479.12
1629.3	482.12
1633.816	486.12
1638.327	493.12
1642.834	489.12
1647.336	498.12
1651.834	513.12
1656.328	513.12
1660.817	514.12
1665.302	520.12
1669.783	521.12
1674.259	528.12
1678.732	529.12
1683.199	530.12
1687.663	522.12
1692.122	522.12
1696.577	519.12
1701.028	499.12
1705.474	487.12
1709.917	470.12
1714.355	473.12
1718.788	471.12
1723.218	478.12
1727.643	485.12
1732.064	478.12
1736.481	487.12
1740.893	478.12
1745.301	479.12
1749.705	481.12
1754.105	473.12
1758.501	464.12
1762.893	468.12
1767.28	457.12
1771.663	475.12
1776.042	470.12
1780.417	489.12
1784.787	486.12
1789.154	496.12
1793.516	499.12
1797.874	478.12
1802.228	479.12
1806.578	462.12
1810.924	462.12
1815.266	457.12
1819.603	452.12
1823.937	453.12
1828.266	451.12
1832.591	459.12
1836.913	468.12
1841.23	474.12
1845.543	480.12
1849.852	478.12
1854.156	488.12
1858.457	495.12
1862.754	504.12
1867.047	512.12
1871.335	511.12
1875.62	523.12
1879.9	526.12
1884.177	526.12
1888.449	530.12
1892.718	541.12
1896.982	541.12
1901.243	539.12
1905.499	540.12
1909.752	534.12
1914	546.12
1918.245	538.12
1922.485	543.12
1926.722	545.12
1930.954	551.12
1935.183	550.12
1939.408	550.12
1943.628	545.12
1947.845	536.12
1952.058	527.12
1956.267	524.12
1960.472	513.12
1964.673	506.12
1968.87	506.12
1973.063	491.12
1977.252	487.12
1981.438	486.12
1985.619	496.12
1989.797	496.12
1993.971	493.12
1998.14	487.12
2002.306	496.12
2006.469	502.12
2010.627	507.12
2014.781	509.12
2018.932	514.12
2023.078	513.12
2027.221	519.12
2031.36	496.12
2035.495	512.12
2039.627	507.12
2043.754	510.12
2047.878	503.12
2051.998	504.12
2056.114	521.12
2060.226	517.12
2064.334	520.12
2068.439	530.12
2072.54	521.12
2076.637	534.12
2080.73	531.12
2084.82	537.12
2088.906	539.12
2092.988	539.12
2097.066	532.12
2101.14	538.12
2105.211	519.12
2109.278	515.12
2113.342	510.12
2117.401	520.12
2121.457	499.12
2125.509	513.12
2129.558	506.12
2133.602	498.12
2137.643	496.12
2141.681	503.12
2145.714	497.12
2149.744	502.12
2153.77	497.12
2157.793	501.12
2161.812	501.12
2165.827	500.12
2169.838	497.12
2173.846	493.12
2177.851	487.12
2181.851	487.12
2185.848	481.12
2189.841	495.12
2193.831	485.12
2197.817	496.12
2201.799	488.12
2205.778	489.12
2209.753	500.12
2213.725	487.12
2217.693	505.12
2221.657	497.12
2225.618	509.12
2229.575	508.12
2233.529	504.12
2237.479	508.12
2241.425	505.12
2245.368	498.12
2249.307	504.12
2253.243	495.12
2257.175	495.12
2261.104	489.12
2265.029	490.12
2268.95	489.12
2272.868	487.12
2276.783	479.12
2280.694	486.12
2284.601	481.12
2288.505	484.12
2292.405	471.12
2296.302	475.12
2300.195	468.12
2304.085	483.12
2307.971	469.12
2311.854	476.12
2315.734	478.12
2319.609	462.12
2323.482	464.12
2327.351	455.12
2331.216	465.12
2335.078	474.12
2338.937	471.12
2342.792	467.12
2346.643	481.12
2350.492	475.12
2354.336	485.12
2358.178	487.12
2362.015	501.12
2365.85	491.12
2369.681	498.12
2373.508	510.12
2377.333	513.12
2381.153	512.12
2384.971	520.12
2388.785	516.12
2392.595	521.12
2396.402	529.12
2400.206	519.12
2404.007	527.12
2407.804	529.12
2411.597	536.12
2415.388	538.12
2419.174	539.12
2422.958	550.12
2426.738	538.12
2430.515	549.12
2434.289	544.12
2438.059	548.12
2441.825	556.12
2445.589	542.12
2449.349	554.12
2453.106	553.12
2456.859	549.12
2460.61	549.12
2464.356	551.12
2468.1	553.12
2471.84	546.12
2475.577	570.12
2479.311	557.12
2483.041	563.12
2486.768	573.12
2490.492	579.12
2494.213	571.12
2497.93	578.12
2501.644	585.12
2505.355	595.12
2509.062	583.12
2512.766	601.12
2516.467	594.12
2520.165	607.12
2523.859	614.12
2527.551	611.12
2531.239	605.12
2534.923	617.12
2538.605	615.12
2542.283	609.12
2545.958	616.12
2549.63	627.12
2553.299	621.12
2556.964	628.12
2560.626	634.12
2564.285	625.12
2567.941	622.12
2571.594	618.12
2575.243	628.12
2578.89	623.12
2582.533	621.12
2586.173	615.12
2589.809	609.12
2593.443	615.12
2597.073	619.12
2600.701	603.12
2604.325	602.12
2607.946	608.12
2611.564	599.12
2615.178	601.12
2618.79	604.12
2622.398	609.12
2626.004	613.12
2629.606	596.12
2633.205	602.12
2636.801	602.12
2640.394	603.12
2643.983	598.12
2647.57	597.12
2651.153	600.12
2654.734	584.12
2658.311	589.12
2661.885	596.12
2665.456	604.12
2669.025	600.12
2672.589	591.12
2676.151	597.12
2679.71	604.12
2683.266	595.12
2686.819	601.12
2690.368	587.12
2693.915	600.12
2697.458	592.12
2700.999	586.12
2704.536	588.12
2708.071	586.12
2711.602	595.12
2715.13	578.12
2718.656	593.12
2722.178	594.12
2725.697	605.12
2729.214	599.12
2732.727	603.12
2736.237	608.12
2739.744	621.12
2743.249	625.12
2746.75	623.12
2750.248	609.12
2753.743	603.12
2757.236	593.12
2760.725	587.12
2764.211	571.12
2767.695	571.12
2771.175	559.12
2774.652	553.12
2778.127	545.12
2781.598	554.12
2785.067	546.12
2788.532	558.12
2791.995	575.12
2795.455	580.12
2798.911	589.12
2802.365	587.12
2805.816	584.12
2809.264	598.12
2812.709	596.12
2816.151	594.12
2819.59	598.12
2823.026	607.12
2826.46	604.12
2829.89	607.12
2833.318	604.12
2836.742	607.12
2840.164	594.12
2843.583	601.12
2846.999	601.12
2850.412	595.12
2853.822	602.12
2857.229	595.12
2860.634	584.12
2864.035	605.12
2867.434	596.12
2870.83	598.12
2874.223	577.12
2877.613	586.12
2881	585.12
2884.385	572.12
2887.766	566.12
2891.145	563.12
2894.521	553.12
2897.894	555.12
2901.264	545.12
2904.631	552.12
2907.996	536.12
2911.358	546.12
2914.717	540.12
2918.073	534.12
2921.426	535.12
2924.777	535.12
2928.124	532.12
2931.469	536.12
2934.811	539.12
2938.15	542.12
2941.487	534.12
2944.821	539.12
2948.152	532.12
2951.48	526.12
2954.805	531.12
2958.128	517.12
2961.447	519.12
2964.765	523.12
2968.079	522.12
2971.39	518.12
2974.699	521.12
2978.005	521.12
2981.308	512.12
2984.609	520.12
2987.907	504.12
2991.202	506.12
2994.494	511.12
2997.784	505.12
3001.07	498.12
3004.355	486.12
3007.636	486.12
3010.915	484.12
3014.191	472.12
3017.464	466.12
3020.734	462.12
3024.002	462.12
3027.267	451.12
3030.53	451.12
3033.789	450.12
3037.046	448.12
3040.301	453.12
3043.552	442.12
3046.801	455.12
3050.048	456.12
3053.291	450.12
3056.532	459.12
3059.771	458.12
3063.006	461.12
3066.239	463.12
3069.469	459.12
3072.697	473.12
3075.922	461.12
3079.144	462.12
3082.364	469.12
3085.581	462.12
3088.795	470.12
3092.007	465.12
3095.216	459.12
3098.423	458.12
3101.627	452.12
3104.828	460.12
3108.026	447.12
3111.222	455.12
3114.416	457.12
3117.607	454.12
3120.795	453.12
3123.98	451.12
3127.163	447.12
3130.344	444.12
3133.521	446.12
3136.696	442.12
3139.869	446.12
3143.039	441.12
3146.206	426.12
3149.371	424.12
3152.533	424.12
3155.693	420.12
3158.85	429.12
3162.005	403.12
3165.157	408.12
3168.306	393.12
3171.453	397.12
3174.597	394.12
3177.739	377.12
3180.878	377.12
3184.014	370.12
3187.149	366.12
3190.28	368.12
3193.409	365.12
3196.536	361.12
3199.659	354.12
3202.781	348.12
3205.9	361.12
3209.016	353.12
3212.13	351.12
3215.241	341.12
3218.35	342.12
3221.456	337.12
3224.56	341.12
3227.661	332.12
3230.76	329.12
3233.856	328.12
3236.95	318.12
3240.041	319.12
3243.13	317.12
3246.216	315.12
3249.3	324.12
3252.382	318.12
3255.46	314.12
3258.537	308.12
3261.611	310.12
3264.682	307.12
3267.751	305.12
3270.818	298.12
3273.882	299.12
3276.943	299.12
3280.002	286.12
3283.059	295.12
3286.113	283.12
3289.165	285.12
3292.214	278.12
3295.261	281.12
3298.306	278.12
3301.348	270.12
3304.387	268.12
3307.425	269.12
3310.459	261.12
3313.492	264.12
3316.521	260.12
3319.549	262.12
3322.574	255.12
3325.597	254.12
3328.617	258.12
3331.635	258.12
3334.65	254.12
3337.663	254.12
3340.674	251.12
3343.682	251.12
3346.688	259.12
3349.691	248.12
3352.692	257.12
3355.691	257.12
3358.687	253.12
3361.681	251.12
3364.673	247.12
3367.662	243.12
3370.649	247.12
3373.633	246.12
3376.615	243.12
3379.595	234.12
3382.572	240.12
3385.547	232.12
3388.52	229.12
3391.49	229.12
3394.458	224.12
3397.424	231.12
3400.387	224.12
3403.348	221.12
3406.307	220.12
3409.263	219.12
3412.217	221.12
3415.168	222.12
3418.118	217.12
3421.065	216.12
3424.009	210.12
3426.951	207.12
3429.891	213.12
3432.829	211.12
3435.764	201.12
3438.697	195.12
3441.628	202.12
3444.557	197.12
3447.483	194.12
3450.407	188.12
3453.328	186.12
3456.247	189.12
3459.164	183.12
3462.079	180.12
3464.991	179.12
3467.902	179.12
3470.809	176.12
3473.715	177.12
3476.618	168.12
3479.519	165.12
3482.418	165.12
3485.315	159.12
3488.209	156.12
3491.101	161.12
3493.99	157.12
3496.878	151.12
3499.763	148.12
3502.646	152.12
3505.527	147.12
3508.405	147.12
3511.281	147.12
3514.155	139.12
3517.027	137.12
3519.897	140.12
3522.764	134.12
3525.629	131.12
3528.492	123.12
3531.352	126.12
3534.211	117.12
3537.067	117.12
3539.921	111.12
3542.773	111.12
3545.622	112.12
3548.469	106.12
3551.315	106.12
3554.157	97.12
3556.998	104.12
3559.837	96.12
3562.673	98.12
3565.507	105.12
3568.339	105.12
3571.169	94.12
3573.996	95.12
3576.822	88.12
3579.645	90.12
3582.466	87.12
3585.285	89.12
3588.101	86.12
3590.916	82.12
3593.728	87.12
3596.538	82.12
3599.346	80.12
3602.152	79.12
3604.956	78.12
3607.757	74.12
3610.556	73.12
3613.354	80.12
3616.149	76.12
3618.942	72.12
3621.732	67.12
3624.521	67.12
3627.307	65.12
3630.092	68.12
3632.874	65.12
3635.654	65.12
3638.432	69.12
3641.208	66.12
3643.982	66.12
3646.753	66.12
3649.523	64.12
3652.29	63.12
3655.055	68.12
3657.818	61.12
3660.579	60.12
3663.338	58.12
3666.095	58.12
3668.849	64.12
3671.602	59.12
3674.352	58.12
3677.101	60.12
3679.847	57.12
3682.591	53.12
3685.333	58.12
3688.073	52.12
3690.811	55.12
3693.547	53.12
3696.281	52.12
3699.013	55.12
3701.742	53.12
3704.47	57.12
3707.195	53.12
3709.919	52.12
3712.64	55.12
3715.359	56.12
3718.076	54.12
3720.792	53.12
3723.505	50.12
3726.216	49.12
3728.925	47.12
3731.632	50.12
3734.336	50.12
3737.039	51.12
3739.74	51.12
3742.439	44.12
3745.136	46.12
3747.83	46.12
3750.523	49.12
3753.213	42.12
3755.902	48.12
3758.589	49.12
3761.273	50.12
3763.956	49.12
3766.636	43.12
3769.315	44.12
3771.991	42.12
3774.665	44.12
3777.338	45.12
3780.008	44.12
3782.677	44.12
3785.343	41.12
3788.007	38.12
3790.67	36.12
3793.33	44.12
3795.989	39.12
3798.645	38.12
3801.299	38.12
3803.952	40.12
3806.602	37.12
3809.251	32.12
3811.897	34.12
3814.542	32.12
3817.184	31.12
3819.825	32.12
3822.463	34.12
3825.1	32.12
3827.735	30.12
3830.367	27.12
3832.998	29.12
3835.627	28.12
3838.253	24.12
3840.878	20.12
3843.501	22.12
3846.122	24.12
3848.741	24.12
3851.358	24.12
3853.973	18.12
3856.586	21.12
3859.197	19.12
3861.806	21.12
3864.414	17.12
3867.019	21.12
3869.622	15.12
3872.224	18.12
3874.823	20.12
3877.421	21.12
3880.016	22.12
3882.61	18.12
3885.202	17.12
3887.792	15.12
3890.38	14.12
3892.966	13.12
3895.55	12.12
3898.132	9.12
3900.713	8.12
3903.291	12.12
3905.868	13.12
3908.442	9.12
3911.015	10.12
3913.586	7.12
3916.155	8.12
3918.722	7.12
3921.287	5.12
3923.85	7.12
3926.411	4.12
3928.971	6.12
3931.528	6.12
3934.084	4.12
3936.638	3.12
3939.19	4.12
3941.74	1.12
3944.288	-0.88
3946.834	4.12
3949.378	1.12
3951.921	-0.88
3954.462	0.12
3957	1.12
3959.537	-1.88
3962.072	2.12
3964.606	-1.88
3967.137	0.12
3969.667	0.12
3972.194	-0.88
3974.72	-3.88
3977.244	-0.88
3979.766	-2.88
3982.286	-1.88
3984.805	-2.88
3987.321	-3.88
3989.836	-1.88
3992.349	-2.88
3994.86	-4.88
3997.369	0.12
3999.877	0.12
4002.382	-2.88
4004.886	-1.88
4007.388	-6.88
4009.888	-1.88
4012.386	-5.88
4014.883	-4.88
4017.377	-1.88
4019.87	1.12
4022.361	-1.88
4024.85	-4.88
4027.338	-6.88
4029.823	-5.88
4032.307	-2.88
4034.789	-3.88
4037.269	-5.88
4039.747	-5.88
4042.224	-1.88
4044.699	-3.88
4047.172	-4.88
4049.643	-2.88
4052.112	-4.88
4054.58	-1.88
4057.046	-6.88
4059.51	-4.88
4061.972	-5.88
4064.432	-6.88
4066.891	-4.88
4069.348	-1.88
4071.803	-6.88
4074.256	-7.88
4076.708	-8.88
4079.158	-6.88
4081.606	-10.88
4084.052	-7.88
4086.497	-6.88
4088.939	-9.88
4091.38	-7.88
4093.819	-9.88
4096.257	-8.88
4098.693	-12.88
4101.127	-13.88
4103.559	-8.88
4105.989	-0.88
4108.418	0.12
4110.845	-3.88
4113.27	-1.88
4115.694	-3.88
4118.115	1.12
4120.535	-8.88
4122.954	-8.88
4125.37	-8.88
4127.785	-8.88
4130.198	-8.88
4132.609	-6.88
4135.019	-11.88
4137.427	-11.88
4139.833	-10.88
4142.237	-11.88
