Data from 2018-2-14_conc=2_n=1_RamanShift_02.txt Node
Date: Wed Feb 14 11:00:26 IST 2018
User: aro
Spectrometer: QEPB0276
Trigger mode: 0
Integration Time (sec): 3.000000E1
Scans to average: 1
Electric dark correction enabled: true
Nonlinearity correction enabled: false
Boxcar width: 0
XAxis mode: Raman Shifts
Number of Pixels in Spectrum: 1044
>>>>>Begin Spectral Data<<<<<
160.701	-145.1
166.742	42.9
172.777	598.9
178.805	2278.9
184.826	6353.9
190.841	13316.9
196.849	21306.9
202.85	26945.9
208.845	28867.9
214.833	28551.9
220.815	28037.9
226.789	27783.9
232.758	27690.9
238.719	27468.9
244.674	27069.9
250.623	26500.9
256.565	25968.9
262.5	25431.9
268.429	24911.9
274.351	24419.9
280.267	24236.9
286.176	23947.9
292.079	23665.9
297.975	23449.9
303.865	23136.9
309.748	23071.9
315.625	22918.9
321.495	22628.9
327.359	22658.9
333.217	22599.9
339.068	22561.9
344.912	22521.9
350.751	22488.9
356.583	22504.9
362.408	22480.9
368.227	22457.9
374.04	22430.9
379.847	22592.9
385.647	22615.9
391.44	22740.9
397.228	22802.9
403.009	22863.9
408.784	22916.9
414.553	22970.9
420.315	23125.9
426.071	23095.9
431.821	23079.9
437.565	23065.9
443.302	22960.9
449.033	22947.9
454.758	22921.9
460.477	22890.9
466.189	22790.9
471.896	22758.9
477.596	22659.9
483.29	22592.9
488.978	22609.9
494.66	22493.9
500.335	22411.9
506.005	22196.9
511.668	21889.9
517.325	21638.9
522.977	21449.9
528.622	21312.9
534.261	21188.9
539.894	21105.9
545.521	20927.9
551.141	20911.9
556.756	20915.9
562.365	20723.9
567.968	20619.9
573.565	20618.9
579.155	20455.9
584.74	20418.9
590.319	20354.9
595.892	20223.9
601.459	20191.9
607.02	20079.9
612.575	19963.9
618.124	19871.9
623.667	19709.9
629.204	19651.9
634.735	19501.9
640.261	19451.9
645.781	19391.9
651.294	19324.9
656.802	19268.9
662.304	19282.9
667.8	19295.9
673.29	19177.9
678.775	19141.9
684.254	19109.9
689.726	19064.9
695.193	18933.9
700.655	18857.9
706.11	18778.9
711.56	18686.9
717.004	18569.9
722.442	18466.9
727.874	18420.9
733.301	18361.9
738.722	18336.9
744.137	18257.9
749.547	18204.9
754.951	18287.9
760.349	18280.9
765.741	18298.9
771.128	18292.9
776.509	18271.9
781.885	18315.9
787.254	18242.9
792.618	18182.9
797.977	18051.9
803.33	17926.9
808.677	17783.9
814.019	17721.9
819.355	17590.9
824.686	17497.9
830.011	17426.9
835.33	17560.9
840.644	17474.9
845.952	17476.9
851.255	17548.9
856.552	17564.9
861.844	17556.9
867.13	17455.9
872.41	17363.9
877.686	17316.9
882.955	17231.9
888.219	17040.9
893.478	16799.9
898.731	16648.9
903.979	16462.9
909.221	16342.9
914.458	16286.9
919.69	16302.9
924.916	16321.9
930.136	16371.9
935.351	16374.9
940.561	16395.9
945.766	16292.9
950.965	16211.9
956.158	16143.9
961.347	16018.9
966.529	15810.9
971.707	15600.9
976.879	15359.9
982.046	15203.9
987.208	15240.9
992.364	15208.9
997.515	15327.9
1002.66	15449.9
1007.801	15602.9
1012.936	15711.9
1018.066	15689.9
1023.19	15705.9
1028.309	15752.9
1033.423	15639.9
1038.532	15608.9
1043.636	15419.9
1048.734	15240.9
1053.827	15092.9
1058.915	14886.9
1063.998	14750.9
1069.075	14744.9
1074.147	14776.9
1079.214	14793.9
1084.276	14904.9
1089.333	14971.9
1094.385	15004.9
1099.431	15055.9
1104.472	15118.9
1109.509	14956.9
1114.54	14839.9
1119.565	14605.9
1124.586	14435.9
1129.602	14341.9
1134.613	14227.9
1139.618	14116.9
1144.619	14113.9
1149.614	14072.9
1154.604	14093.9
1159.589	14137.9
1164.57	14154.9
1169.545	14217.9
1174.515	14126.9
1179.48	14099.9
1184.44	13967.9
1189.395	13952.9
1194.345	13819.9
1199.29	13749.9
1204.23	13714.9
1209.165	13802.9
1214.095	13832.9
1219.021	13916.9
1223.941	13976.9
1228.856	14041.9
1233.766	14080.9
1238.672	14117.9
1243.572	14113.9
1248.467	14018.9
1253.358	13794.9
1258.244	13651.9
1263.124	13448.9
1268	13228.9
1272.871	13076.9
1277.737	12974.9
1282.599	12887.9
1287.455	12916.9
1292.306	12908.9
1297.153	12986.9
1301.995	13072.9
1306.832	13078.9
1311.664	13120.9
1316.491	13102.9
1321.314	12915.9
1326.132	12756.9
1330.945	12483.9
1335.753	12209.9
1340.556	11955.9
1345.354	11704.9
1350.148	11463.9
1354.937	11401.9
1359.722	11398.9
1364.501	11429.9
1369.276	11571.9
1374.046	11680.9
1378.811	11883.9
1383.572	12024.9
1388.327	12102.9
1393.079	12028.9
1397.825	11823.9
1402.567	11683.9
1407.304	11506.9
1412.036	11446.9
1416.764	11306.9
1421.487	11255.9
1426.205	11202.9
1430.919	11102.9
1435.628	11094.9
1440.333	11159.9
1445.032	11231.9
1449.727	11229.9
1454.418	11210.9
1459.104	11073.9
1463.785	10913.9
1468.462	10684.9
1473.134	10400.9
1477.802	10254.9
1482.465	10070.9
1487.123	9970.9
1491.777	9968.9
1496.426	10033.9
1501.071	10148.9
1505.711	10295.9
1510.347	10449.9
1514.978	10677.9
1519.604	10782.9
1524.226	10890.9
1528.844	10880.9
1533.457	10858.9
1538.065	10804.9
1542.669	10768.9
1547.269	10662.9
1551.864	10592.9
1556.454	10582.9
1561.041	10557.9
1565.622	10527.9
1570.199	10536.9
1574.772	10576.9
1579.34	10682.9
1583.904	10737.9
1588.464	10765.9
1593.019	10773.9
1597.569	10767.9
1602.115	10645.9
1606.657	10611.9
1611.195	10529.9
1615.728	10492.9
1620.256	10438.9
1624.78	10440.9
1629.3	10481.9
1633.816	10494.9
1638.327	10579.9
1642.834	10655.9
1647.336	10692.9
1651.834	10670.9
1656.328	10651.9
1660.817	10601.9
1665.302	10545.9
1669.783	10328.9
1674.259	10104.9
1678.732	9853.9
1683.199	9544.9
1687.663	9203.9
1692.122	8929.9
1696.577	8746.9
1701.028	8743.9
1705.474	8810.9
1709.917	8862.9
1714.355	8936.9
1718.788	8853.9
1723.218	8684.9
1727.643	8541.9
1732.064	8366.9
1736.481	8179.9
1740.893	7987.9
1745.301	7758.9
1749.705	7559.9
1754.105	7315.9
1758.501	7133.9
1762.893	6931.9
1767.28	6754.9
1771.663	6600.9
1776.042	6497.9
1780.417	6430.9
1784.787	6422.9
1789.154	6496.9
1793.516	6648.9
1797.874	6716.9
1802.228	6883.9
1806.578	6912.9
1810.924	6950.9
1815.266	6926.9
1819.603	6762.9
1823.937	6675.9
1828.266	6541.9
1832.591	6456.9
1836.913	6380.9
1841.23	6284.9
1845.543	6235.9
1849.852	6211.9
1854.156	6201.9
1858.457	6152.9
1862.754	6137.9
1867.047	6134.9
1871.335	6147.9
1875.62	6140.9
1879.9	6133.9
1884.177	6051.9
1888.449	6021.9
1892.718	5958.9
1896.982	5896.9
1901.243	5849.9
1905.499	5821.9
1909.752	5845.9
1914	5801.9
1918.245	5824.9
1922.485	5888.9
1926.722	5976.9
1930.954	6017.9
1935.183	6082.9
1939.408	6126.9
1943.628	6169.9
1947.845	6175.9
1952.058	6145.9
1956.267	6103.9
1960.472	6043.9
1964.673	5959.9
1968.87	5830.9
1973.063	5763.9
1977.252	5678.9
1981.438	5621.9
1985.619	5570.9
1989.797	5535.9
1993.971	5454.9
1998.14	5425.9
2002.306	5429.9
2006.469	5423.9
2010.627	5390.9
2014.781	5332.9
2018.932	5282.9
2023.078	5269.9
2027.221	5162.9
2031.36	5087.9
2035.495	5049.9
2039.627	4942.9
2043.754	4900.9
2047.878	4861.9
2051.998	4827.9
2056.114	4831.9
2060.226	4811.9
2064.334	4831.9
2068.439	4823.9
2072.54	4834.9
2076.637	4892.9
2080.73	4904.9
2084.82	4969.9
2088.906	4968.9
2092.988	4981.9
2097.066	4961.9
2101.14	4915.9
2105.211	4904.9
2109.278	4858.9
2113.342	4852.9
2117.401	4817.9
2121.457	4764.9
2125.509	4772.9
2129.558	4732.9
2133.602	4676.9
2137.643	4629.9
2141.681	4639.9
2145.714	4608.9
2149.744	4595.9
2153.77	4512.9
2157.793	4497.9
2161.812	4446.9
2165.827	4372.9
2169.838	4335.9
2173.846	4216.9
2177.851	4150.9
2181.851	4083.9
2185.848	4037.9
2189.841	4025.9
2193.831	3959.9
2197.817	3914.9
2201.799	3879.9
2205.778	3876.9
2209.753	3844.9
2213.725	3848.9
2217.693	3863.9
2221.657	3839.9
2225.618	3826.9
2229.575	3771.9
2233.529	3777.9
2237.479	3714.9
2241.425	3662.9
2245.368	3630.9
2249.307	3561.9
2253.243	3528.9
2257.175	3464.9
2261.104	3435.9
2265.029	3406.9
2268.95	3367.9
2272.868	3343.9
2276.783	3281.9
2280.694	3243.9
2284.601	3213.9
2288.505	3186.9
2292.405	3142.9
2296.302	3120.9
2300.195	3086.9
2304.085	3038.9
2307.971	3010.9
2311.854	2972.9
2315.734	2925.9
2319.609	2866.9
2323.482	2807.9
2327.351	2811.9
2331.216	2772.9
2335.078	2740.9
2338.937	2739.9
2342.792	2734.9
2346.643	2701.9
2350.492	2712.9
2354.336	2708.9
2358.178	2725.9
2362.015	2745.9
2365.85	2733.9
2369.681	2725.9
2373.508	2722.9
2377.333	2723.9
2381.153	2715.9
2384.971	2671.9
2388.785	2664.9
2392.595	2643.9
2396.402	2621.9
2400.206	2603.9
2404.007	2579.9
2407.804	2570.9
2411.597	2548.9
2415.388	2525.9
2419.174	2505.9
2422.958	2504.9
2426.738	2472.9
2430.515	2461.9
2434.289	2430.9
2438.059	2423.9
2441.825	2406.9
2445.589	2360.9
2449.349	2364.9
2453.106	2326.9
2456.859	2304.9
2460.61	2267.9
2464.356	2238.9
2468.1	2229.9
2471.84	2197.9
2475.577	2169.9
2479.311	2166.9
2483.041	2148.9
2486.768	2132.9
2490.492	2117.9
2494.213	2121.9
2497.93	2105.9
2501.644	2085.9
2505.355	2092.9
2509.062	2099.9
2512.766	2084.9
2516.467	2059.9
2520.165	2056.9
2523.859	2033.9
2527.551	2020.9
2531.239	2018.9
2534.923	1987.9
2538.605	1970.9
2542.283	1982.9
2545.958	1977.9
2549.63	1992.9
2553.299	1986.9
2556.964	1957.9
2560.626	1929.9
2564.285	1955.9
2567.941	1956.9
2571.594	1912.9
2575.243	1927.9
2578.89	1918.9
2582.533	1881.9
2586.173	1850.9
2589.809	1856.9
2593.443	1839.9
2597.073	1797.9
2600.701	1787.9
2604.325	1780.9
2607.946	1767.9
2611.564	1746.9
2615.178	1748.9
2618.79	1742.9
2622.398	1730.9
2626.004	1710.9
2629.606	1686.9
2633.205	1688.9
2636.801	1640.9
2640.394	1605.9
2643.983	1584.9
2647.57	1580.9
2651.153	1543.9
2654.734	1516.9
2658.311	1502.9
2661.885	1469.9
2665.456	1443.9
2669.025	1428.9
2672.589	1398.9
2676.151	1411.9
2679.71	1408.9
2683.266	1357.9
2686.819	1332.9
2690.368	1317.9
2693.915	1277.9
2697.458	1259.9
2700.999	1217.9
2704.536	1194.9
2708.071	1162.9
2711.602	1139.9
2715.13	1123.9
2718.656	1091.9
2722.178	1071.9
2725.697	1058.9
2729.214	1051.9
2732.727	1053.9
2736.237	1037.9
2739.744	1049.9
2743.249	1040.9
2746.75	1052.9
2750.248	1072.9
2753.743	1064.9
2757.236	1086.9
2760.725	1095.9
2764.211	1110.9
2767.695	1111.9
2771.175	1126.9
2774.652	1104.9
2778.127	1083.9
2781.598	1090.9
2785.067	1072.9
2788.532	1094.9
2791.995	1080.9
2795.455	1068.9
2798.911	1090.9
2802.365	1093.9
2805.816	1064.9
2809.264	1087.9
2812.709	1079.9
2816.151	1081.9
2819.59	1078.9
2823.026	1085.9
2826.46	1088.9
2829.89	1086.9
2833.318	1080.9
2836.742	1092.9
2840.164	1089.9
2843.583	1103.9
2846.999	1121.9
2850.412	1128.9
2853.822	1146.9
2857.229	1155.9
2860.634	1185.9
2864.035	1212.9
2867.434	1226.9
2870.83	1241.9
2874.223	1266.9
2877.613	1293.9
2881	1302.9
2884.385	1307.9
2887.766	1314.9
2891.145	1317.9
2894.521	1302.9
2897.894	1310.9
2901.264	1316.9
2904.631	1302.9
2907.996	1323.9
2911.358	1325.9
2914.717	1334.9
2918.073	1362.9
2921.426	1367.9
2924.777	1364.9
2928.124	1394.9
2931.469	1409.9
2934.811	1457.9
2938.15	1457.9
2941.487	1465.9
2944.821	1476.9
2948.152	1488.9
2951.48	1490.9
2954.805	1461.9
2958.128	1449.9
2961.447	1452.9
2964.765	1463.9
2968.079	1452.9
2971.39	1457.9
2974.699	1482.9
2978.005	1491.9
2981.308	1544.9
2984.609	1574.9
2987.907	1603.9
2991.202	1627.9
2994.494	1670.9
2997.784	1716.9
3001.07	1723.9
3004.355	1758.9
3007.636	1766.9
3010.915	1814.9
3014.191	1821.9
3017.464	1819.9
3020.734	1837.9
3024.002	1857.9
3027.267	1867.9
3030.53	1872.9
3033.789	1907.9
3037.046	1926.9
3040.301	1939.9
3043.552	2007.9
3046.801	2041.9
3050.048	2071.9
3053.291	2135.9
3056.532	2173.9
3059.771	2232.9
3063.006	2325.9
3066.239	2389.9
3069.469	2443.9
3072.697	2518.9
3075.922	2591.9
3079.144	2651.9
3082.364	2688.9
3085.581	2761.9
3088.795	2824.9
3092.007	2883.9
3095.216	2941.9
3098.423	3001.9
3101.627	3083.9
3104.828	3140.9
3108.026	3232.9
3111.222	3313.9
3114.416	3370.9
3117.607	3411.9
3120.795	3510.9
3123.98	3599.9
3127.163	3693.9
3130.344	3795.9
3133.521	3894.9
3136.696	3967.9
3139.869	4046.9
3143.039	4088.9
3146.206	4157.9
3149.371	4203.9
3152.533	4237.9
3155.693	4279.9
3158.85	4276.9
3162.005	4306.9
3165.157	4367.9
3168.306	4380.9
3171.453	4361.9
3174.597	4391.9
3177.739	4393.9
3180.878	4379.9
3184.014	4390.9
3187.149	4377.9
3190.28	4391.9
3193.409	4402.9
3196.536	4431.9
3199.659	4425.9
3202.781	4453.9
3205.9	4457.9
3209.016	4407.9
3212.13	4433.9
3215.241	4391.9
3218.35	4339.9
3221.456	4281.9
3224.56	4243.9
3227.661	4218.9
3230.76	4159.9
3233.856	4135.9
3236.95	4093.9
3240.041	4060.9
3243.13	4029.9
3246.216	4011.9
3249.3	4003.9
3252.382	3979.9
3255.46	3964.9
3258.537	3963.9
3261.611	3955.9
3264.682	3976.9
3267.751	3971.9
3270.818	3952.9
3273.882	3950.9
3276.943	3920.9
3280.002	3884.9
3283.059	3842.9
3286.113	3801.9
3289.165	3754.9
3292.214	3701.9
3295.261	3644.9
3298.306	3578.9
3301.348	3536.9
3304.387	3462.9
3307.425	3409.9
3310.459	3337.9
3313.492	3297.9
3316.521	3261.9
3319.549	3227.9
3322.574	3174.9
3325.597	3152.9
3328.617	3169.9
3331.635	3111.9
3334.65	3107.9
3337.663	3091.9
3340.674	3055.9
3343.682	3044.9
3346.688	3046.9
3349.691	3009.9
3352.692	3018.9
3355.691	2976.9
3358.687	2970.9
3361.681	2935.9
3364.673	2875.9
3367.662	2858.9
3370.649	2794.9
3373.633	2768.9
3376.615	2724.9
3379.595	2681.9
3382.572	2666.9
3385.547	2619.9
3388.52	2576.9
3391.49	2538.9
3394.458	2490.9
3397.424	2464.9
3400.387	2401.9
3403.348	2401.9
3406.307	2370.9
3409.263	2338.9
3412.217	2353.9
3415.168	2316.9
3418.118	2274.9
3421.065	2245.9
3424.009	2207.9
3426.951	2176.9
3429.891	2155.9
3432.829	2112.9
3435.764	2050.9
3438.697	1999.9
3441.628	1952.9
3444.557	1872.9
3447.483	1839.9
3450.407	1795.9
3453.328	1731.9
3456.247	1677.9
3459.164	1605.9
3462.079	1563.9
3464.991	1500.9
3467.902	1445.9
3470.809	1395.9
3473.715	1339.9
3476.618	1296.9
3479.519	1259.9
3482.418	1221.9
3485.315	1178.9
3488.209	1139.9
3491.101	1089.9
3493.99	1052.9
3496.878	1030.9
3499.763	993.9
3502.646	935.9
3505.527	913.9
3508.405	860.9
3511.281	800.9
3514.155	779.9
3517.027	739.9
3519.897	674.9
3522.764	636.9
3525.629	600.9
3528.492	547.9
3531.352	507.9
3534.211	459.9
3537.067	446.9
3539.921	384.9
3542.773	342.9
3545.622	303.9
3548.469	268.9
3551.315	240.9
3554.157	227.9
3556.998	192.9
3559.837	168.9
3562.673	140.9
3565.507	114.9
3568.339	80.9
3571.169	65.9
3573.996	44.9
3576.822	19.9
3579.645	-7.1
3582.466	-17.1
3585.285	-47.1
3588.101	-67.1
3590.916	-85.1
3593.728	-118.1
3596.538	-124.1
3599.346	-156.1
3602.152	-170.1
3604.956	-184.1
3607.757	-197.1
3610.556	-221.1
3613.354	-238.1
3616.149	-251.1
3618.942	-267.1
3621.732	-277.1
3624.521	-287.1
3627.307	-310.1
3630.092	-316.1
3632.874	-322.1
3635.654	-333.1
3638.432	-348.1
3641.208	-363.1
3643.982	-368.1
3646.753	-370.1
3649.523	-396.1
3652.29	-404.1
3655.055	-400.1
3657.818	-416.1
3660.579	-427.1
3663.338	-440.1
3666.095	-445.1
3668.849	-463.1
3671.602	-468.1
3674.352	-478.1
3677.101	-481.1
3679.847	-492.1
3682.591	-502.1
3685.333	-502.1
3688.073	-512.1
3690.811	-521.1
3693.547	-525.1
3696.281	-527.1
3699.013	-532.1
3701.742	-541.1
3704.47	-543.1
3707.195	-552.1
3709.919	-554.1
3712.64	-554.1
3715.359	-566.1
3718.076	-566.1
3720.792	-564.1
3723.505	-564.1
3726.216	-581.1
3728.925	-572.1
3731.632	-585.1
3734.336	-582.1
3737.039	-594.1
3739.74	-588.1
3742.439	-598.1
3745.136	-599.1
3747.83	-604.1
3750.523	-596.1
3753.213	-593.1
3755.902	-606.1
3758.589	-604.1
3761.273	-605.1
3763.956	-609.1
3766.636	-607.1
3769.315	-614.1
3771.991	-617.1
3774.665	-620.1
3777.338	-621.1
3780.008	-623.1
3782.677	-629.1
3785.343	-620.1
3788.007	-628.1
3790.67	-623.1
3793.33	-627.1
3795.989	-631.1
3798.645	-628.1
3801.299	-631.1
3803.952	-638.1
3806.602	-636.1
3809.251	-638.1
3811.897	-641.1
3814.542	-638.1
3817.184	-638.1
3819.825	-637.1
3822.463	-637.1
3825.1	-640.1
3827.735	-633.1
3830.367	-638.1
3832.998	-647.1
3835.627	-649.1
3838.253	-648.1
3840.878	-646.1
3843.501	-647.1
3846.122	-641.1
3848.741	-645.1
3851.358	-650.1
3853.973	-645.1
3856.586	-649.1
3859.197	-645.1
3861.806	-656.1
3864.414	-649.1
3867.019	-644.1
3869.622	-648.1
3872.224	-649.1
3874.823	-635.1
3877.421	-613.1
3880.016	-597.1
3882.61	-563.1
3885.202	-566.1
3887.792	-571.1
3890.38	-615.1
3892.966	-638.1
3895.55	-648.1
3898.132	-658.1
3900.713	-663.1
3903.291	-661.1
3905.868	-665.1
3908.442	-666.1
3911.015	-665.1
3913.586	-665.1
3916.155	-664.1
3918.722	-671.1
3921.287	-665.1
3923.85	-674.1
3926.411	-667.1
3928.971	-675.1
3931.528	-667.1
3934.084	-665.1
3936.638	-661.1
3939.19	-667.1
3941.74	-661.1
3944.288	-673.1
3946.834	-667.1
3949.378	-672.1
3951.921	-675.1
3954.462	-672.1
3957	-668.1
3959.537	-673.1
3962.072	-669.1
3964.606	-671.1
3967.137	-667.1
3969.667	-667.1
3972.194	-665.1
3974.72	-666.1
3977.244	-656.1
3979.766	-653.1
3982.286	-656.1
3984.805	-651.1
3987.321	-655.1
3989.836	-652.1
3992.349	-647.1
3994.86	-654.1
3997.369	-659.1
3999.877	-649.1
4002.382	-651.1
4004.886	-653.1
4007.388	-648.1
4009.888	-648.1
4012.386	-657.1
4014.883	-648.1
4017.377	-653.1
4019.87	-647.1
4022.361	-647.1
4024.85	-651.1
4027.338	-655.1
4029.823	-657.1
4032.307	-658.1
4034.789	-652.1
4037.269	-652.1
4039.747	-656.1
4042.224	-659.1
4044.699	-657.1
4047.172	-653.1
4049.643	-654.1
4052.112	-660.1
4054.58	-660.1
4057.046	-657.1
4059.51	-658.1
4061.972	-660.1
4064.432	-657.1
4066.891	-657.1
4069.348	-658.1
4071.803	-659.1
4074.256	-656.1
4076.708	-659.1
4079.158	-657.1
4081.606	-659.1
4084.052	-655.1
4086.497	-660.1
4088.939	-653.1
4091.38	-654.1
4093.819	-652.1
4096.257	-690.1
4098.693	-690.1
4101.127	-692.1
4103.559	-694.1
4105.989	-394.1
4108.418	-373.1
4110.845	-345.1
4113.27	-325.1
4115.694	-282.1
4118.115	-225.1
4120.535	-654.1
4122.954	-654.1
4125.37	-648.1
4127.785	-656.1
4130.198	-651.1
4132.609	-658.1
4135.019	-692.1
4137.427	-694.1
4139.833	-697.1
4142.237	-692.1
