Data from 2018-2-14_conc=5_n=2_RamanShift_02.txt Node
Date: Wed Feb 14 14:07:55 IST 2018
User: aro
Spectrometer: QEPB0276
Trigger mode: 0
Integration Time (sec): 3.000000E1
Scans to average: 1
Electric dark correction enabled: true
Nonlinearity correction enabled: false
Boxcar width: 0
XAxis mode: Raman Shifts
Number of Pixels in Spectrum: 1044
>>>>>Begin Spectral Data<<<<<
160.701	-145.6
166.742	33.4
172.777	588.4
178.805	2241.4
184.826	6183.4
190.841	12927.4
196.849	20775.4
202.85	26311.4
208.845	28042.4
214.833	27750.4
220.815	27285.4
226.789	27075.4
232.758	26916.4
238.719	26755.4
244.674	26350.4
250.623	25872.4
256.565	25383.4
262.5	24791.4
268.429	24310.4
274.351	23910.4
280.267	23593.4
286.176	23373.4
292.079	23072.4
297.975	22862.4
303.865	22634.4
309.748	22508.4
315.625	22322.4
321.495	22207.4
327.359	22176.4
333.217	22100.4
339.068	22031.4
344.912	22080.4
350.751	22027.4
356.583	21961.4
362.408	21968.4
368.227	21969.4
374.04	21986.4
379.847	22050.4
385.647	22060.4
391.44	22225.4
397.228	22287.4
403.009	22406.4
408.784	22420.4
414.553	22446.4
420.315	22570.4
426.071	22561.4
431.821	22558.4
437.565	22523.4
443.302	22579.4
449.033	22398.4
454.758	22400.4
460.477	22360.4
466.189	22289.4
471.896	22228.4
477.596	22184.4
483.29	22129.4
488.978	22146.4
494.66	22033.4
500.335	21909.4
506.005	21693.4
511.668	21410.4
517.325	21161.4
522.977	21012.4
528.622	20881.4
534.261	20752.4
539.894	20690.4
545.521	20546.4
551.141	20524.4
556.756	20359.4
562.365	20366.4
567.968	20245.4
573.565	20204.4
579.155	20107.4
584.74	20023.4
590.319	19962.4
595.892	19922.4
601.459	19837.4
607.02	19708.4
612.575	19565.4
618.124	19464.4
623.667	19365.4
629.204	19299.4
634.735	19197.4
640.261	19051.4
645.781	19053.4
651.294	18974.4
656.802	18999.4
662.304	18953.4
667.8	18954.4
673.29	18914.4
678.775	18872.4
684.254	18782.4
689.726	18706.4
695.193	18660.4
700.655	18548.4
706.11	18479.4
711.56	18445.4
717.004	18280.4
722.442	18186.4
727.874	18199.4
733.301	18092.4
738.722	18030.4
744.137	18015.4
749.547	17983.4
754.951	17990.4
760.349	18034.4
765.741	18012.4
771.128	18086.4
776.509	17935.4
781.885	18003.4
787.254	17894.4
792.618	17860.4
797.977	17756.4
803.33	17679.4
808.677	17547.4
814.019	17448.4
819.355	17347.4
824.686	17287.4
830.011	17280.4
835.33	17262.4
840.644	17230.4
845.952	17286.4
851.255	17368.4
856.552	17370.4
861.844	17373.4
867.13	17266.4
872.41	17197.4
877.686	17086.4
882.955	16982.4
888.219	16852.4
893.478	16634.4
898.731	16462.4
903.979	16253.4
909.221	16146.4
914.458	16149.4
919.69	16075.4
924.916	16190.4
930.136	16230.4
935.351	16228.4
940.561	16267.4
945.766	16148.4
950.965	16135.4
956.158	15951.4
961.347	15807.4
966.529	15569.4
971.707	15428.4
976.879	15245.4
982.046	15160.4
987.208	15103.4
992.364	15152.4
997.515	15151.4
1002.66	15273.4
1007.801	15479.4
1012.936	15593.4
1018.066	15577.4
1023.19	15542.4
1028.309	15574.4
1033.423	15537.4
1038.532	15458.4
1043.636	15312.4
1048.734	15140.4
1053.827	14945.4
1058.915	14751.4
1063.998	14676.4
1069.075	14648.4
1074.147	14643.4
1079.214	14739.4
1084.276	14792.4
1089.333	14869.4
1094.385	14979.4
1099.431	15042.4
1104.472	14992.4
1109.509	14865.4
1114.54	14680.4
1119.565	14571.4
1124.586	14373.4
1129.602	14178.4
1134.613	14102.4
1139.618	14035.4
1144.619	14006.4
1149.614	13976.4
1154.604	13974.4
1159.589	14059.4
1164.57	14060.4
1169.545	14104.4
1174.515	14062.4
1179.48	13969.4
1184.44	13949.4
1189.395	13850.4
1194.345	13736.4
1199.29	13659.4
1204.23	13649.4
1209.165	13674.4
1214.095	13773.4
1219.021	13880.4
1223.941	13915.4
1228.856	14016.4
1233.766	14016.4
1238.672	14041.4
1243.572	14008.4
1248.467	13953.4
1253.358	13830.4
1258.244	13629.4
1263.124	13418.4
1268	13219.4
1272.871	13053.4
1277.737	13006.4
1282.599	12880.4
1287.455	12867.4
1292.306	12932.4
1297.153	12953.4
1301.995	12991.4
1306.832	13110.4
1311.664	13121.4
1316.491	13021.4
1321.314	12868.4
1326.132	12717.4
1330.945	12435.4
1335.753	12163.4
1340.556	11831.4
1345.354	11626.4
1350.148	11400.4
1354.937	11281.4
1359.722	11392.4
1364.501	11455.4
1369.276	11565.4
1374.046	11791.4
1378.811	11882.4
1383.572	12014.4
1388.327	12107.4
1393.079	12045.4
1397.825	11884.4
1402.567	11686.4
1407.304	11501.4
1412.036	11362.4
1416.764	11273.4
1421.487	11230.4
1426.205	11159.4
1430.919	11123.4
1435.628	11137.4
1440.333	11134.4
1445.032	11147.4
1449.727	11253.4
1454.418	11187.4
1459.104	11095.4
1463.785	10862.4
1468.462	10587.4
1473.134	10412.4
1477.802	10239.4
1482.465	10091.4
1487.123	9989.4
1491.777	9956.4
1496.426	10047.4
1501.071	10152.4
1505.711	10334.4
1510.347	10558.4
1514.978	10671.4
1519.604	10893.4
1524.226	11002.4
1528.844	11052.4
1533.457	10966.4
1538.065	10856.4
1542.669	10772.4
1547.269	10690.4
1551.864	10612.4
1556.454	10584.4
1561.041	10591.4
1565.622	10521.4
1570.199	10541.4
1574.772	10653.4
1579.34	10674.4
1583.904	10733.4
1588.464	10760.4
1593.019	10772.4
1597.569	10760.4
1602.115	10655.4
1606.657	10590.4
1611.195	10549.4
1615.728	10433.4
1620.256	10410.4
1624.78	10399.4
1629.3	10468.4
1633.816	10502.4
1638.327	10523.4
1642.834	10581.4
1647.336	10619.4
1651.834	10628.4
1656.328	10642.4
1660.817	10569.4
1665.302	10486.4
1669.783	10315.4
1674.259	10123.4
1678.732	9806.4
1683.199	9549.4
1687.663	9222.4
1692.122	8944.4
1696.577	8842.4
1701.028	8831.4
1705.474	8881.4
1709.917	8985.4
1714.355	9025.4
1718.788	8987.4
1723.218	8829.4
1727.643	8641.4
1732.064	8457.4
1736.481	8259.4
1740.893	8080.4
1745.301	7810.4
1749.705	7633.4
1754.105	7412.4
1758.501	7216.4
1762.893	6967.4
1767.28	6844.4
1771.663	6686.4
1776.042	6559.4
1780.417	6515.4
1784.787	6530.4
1789.154	6612.4
1793.516	6731.4
1797.874	6896.4
1802.228	6974.4
1806.578	7070.4
1810.924	7088.4
1815.266	6997.4
1819.603	6895.4
1823.937	6769.4
1828.266	6654.4
1832.591	6520.4
1836.913	6468.4
1841.23	6371.4
1845.543	6322.4
1849.852	6317.4
1854.156	6272.4
1858.457	6303.4
1862.754	6246.4
1867.047	6280.4
1871.335	6264.4
1875.62	6271.4
1879.9	6245.4
1884.177	6184.4
1888.449	6141.4
1892.718	6074.4
1896.982	6046.4
1901.243	5987.4
1905.499	5882.4
1909.752	5922.4
1914	5919.4
1918.245	5977.4
1922.485	6024.4
1926.722	6120.4
1930.954	6144.4
1935.183	6243.4
1939.408	6313.4
1943.628	6348.4
1947.845	6379.4
1952.058	6348.4
1956.267	6272.4
1960.472	6201.4
1964.673	6111.4
1968.87	6013.4
1973.063	5866.4
1977.252	5812.4
1981.438	5748.4
1985.619	5687.4
1989.797	5615.4
1993.971	5585.4
1998.14	5537.4
2002.306	5518.4
2006.469	5527.4
2010.627	5474.4
2014.781	5431.4
2018.932	5400.4
2023.078	5333.4
2027.221	5256.4
2031.36	5201.4
2035.495	5151.4
2039.627	5031.4
2043.754	4998.4
2047.878	4937.4
2051.998	4914.4
2056.114	4934.4
2060.226	4889.4
2064.334	4898.4
2068.439	4918.4
2072.54	4968.4
2076.637	4996.4
2080.73	5042.4
2084.82	5083.4
2088.906	5072.4
2092.988	5082.4
2097.066	5040.4
2101.14	5086.4
2105.211	5013.4
2109.278	4984.4
2113.342	4954.4
2117.401	4923.4
2121.457	4887.4
2125.509	4868.4
2129.558	4827.4
2133.602	4821.4
2137.643	4763.4
2141.681	4790.4
2145.714	4734.4
2149.744	4676.4
2153.77	4659.4
2157.793	4593.4
2161.812	4546.4
2165.827	4497.4
2169.838	4395.4
2173.846	4323.4
2177.851	4259.4
2181.851	4222.4
2185.848	4148.4
2189.841	4109.4
2193.831	4053.4
2197.817	4020.4
2201.799	3995.4
2205.778	3962.4
2209.753	3981.4
2213.725	3931.4
2217.693	3928.4
2221.657	3918.4
2225.618	3921.4
2229.575	3889.4
2233.529	3889.4
2237.479	3840.4
2241.425	3766.4
2245.368	3704.4
2249.307	3663.4
2253.243	3625.4
2257.175	3593.4
2261.104	3501.4
2265.029	3464.4
2268.95	3456.4
2272.868	3402.4
2276.783	3396.4
2280.694	3326.4
2284.601	3313.4
2288.505	3274.4
2292.405	3251.4
2296.302	3191.4
2300.195	3162.4
2304.085	3162.4
2307.971	3104.4
2311.854	3023.4
2315.734	3006.4
2319.609	2918.4
2323.482	2906.4
2327.351	2878.4
2331.216	2853.4
2335.078	2841.4
2338.937	2825.4
2342.792	2801.4
2346.643	2796.4
2350.492	2794.4
2354.336	2788.4
2358.178	2812.4
2362.015	2820.4
2365.85	2812.4
2369.681	2805.4
2373.508	2806.4
2377.333	2805.4
2381.153	2803.4
2384.971	2781.4
2388.785	2772.4
2392.595	2720.4
2396.402	2715.4
2400.206	2715.4
2404.007	2665.4
2407.804	2658.4
2411.597	2660.4
2415.388	2631.4
2419.174	2612.4
2422.958	2596.4
2426.738	2570.4
2430.515	2571.4
2434.289	2511.4
2438.059	2491.4
2441.825	2486.4
2445.589	2468.4
2449.349	2436.4
2453.106	2432.4
2456.859	2383.4
2460.61	2340.4
2464.356	2344.4
2468.1	2272.4
2471.84	2279.4
2475.577	2246.4
2479.311	2238.4
2483.041	2224.4
2486.768	2229.4
2490.492	2206.4
2494.213	2227.4
2497.93	2208.4
2501.644	2213.4
2505.355	2176.4
2509.062	2189.4
2512.766	2169.4
2516.467	2164.4
2520.165	2146.4
2523.859	2124.4
2527.551	2123.4
2531.239	2101.4
2534.923	2090.4
2538.605	2093.4
2542.283	2118.4
2545.958	2078.4
2549.63	2074.4
2553.299	2086.4
2556.964	2056.4
2560.626	2071.4
2564.285	2046.4
2567.941	2048.4
2571.594	2038.4
2575.243	2030.4
2578.89	2001.4
2582.533	1996.4
2586.173	1979.4
2589.809	1963.4
2593.443	1913.4
2597.073	1919.4
2600.701	1905.4
2604.325	1878.4
2607.946	1860.4
2611.564	1862.4
2615.178	1843.4
2618.79	1847.4
2622.398	1798.4
2626.004	1808.4
2629.606	1778.4
2633.205	1742.4
2636.801	1723.4
2640.394	1690.4
2643.983	1664.4
2647.57	1642.4
2651.153	1614.4
2654.734	1606.4
2658.311	1552.4
2661.885	1526.4
2665.456	1538.4
2669.025	1531.4
2672.589	1498.4
2676.151	1454.4
2679.71	1470.4
2683.266	1453.4
2686.819	1402.4
2690.368	1365.4
2693.915	1351.4
2697.458	1333.4
2700.999	1292.4
2704.536	1280.4
2708.071	1239.4
2711.602	1215.4
2715.13	1197.4
2718.656	1166.4
2722.178	1162.4
2725.697	1111.4
2729.214	1133.4
2732.727	1108.4
2736.237	1088.4
2739.744	1091.4
2743.249	1127.4
2746.75	1121.4
2750.248	1145.4
2753.743	1160.4
2757.236	1162.4
2760.725	1161.4
2764.211	1182.4
2767.695	1188.4
2771.175	1198.4
2774.652	1171.4
2778.127	1180.4
2781.598	1170.4
2785.067	1164.4
2788.532	1140.4
2791.995	1135.4
2795.455	1134.4
2798.911	1129.4
2802.365	1153.4
2805.816	1167.4
2809.264	1154.4
2812.709	1144.4
2816.151	1141.4
2819.59	1134.4
2823.026	1150.4
2826.46	1143.4
2829.89	1152.4
2833.318	1163.4
2836.742	1164.4
2840.164	1151.4
2843.583	1169.4
2846.999	1185.4
2850.412	1193.4
2853.822	1221.4
2857.229	1220.4
2860.634	1246.4
2864.035	1250.4
2867.434	1268.4
2870.83	1293.4
2874.223	1326.4
2877.613	1338.4
2881	1333.4
2884.385	1326.4
2887.766	1354.4
2891.145	1360.4
2894.521	1321.4
2897.894	1348.4
2901.264	1332.4
2904.631	1347.4
2907.996	1337.4
2911.358	1354.4
2914.717	1364.4
2918.073	1379.4
2921.426	1385.4
2924.777	1390.4
2928.124	1418.4
2931.469	1440.4
2934.811	1480.4
2938.15	1474.4
2941.487	1490.4
2944.821	1499.4
2948.152	1500.4
2951.48	1487.4
2954.805	1466.4
2958.128	1468.4
2961.447	1451.4
2964.765	1450.4
2968.079	1459.4
2971.39	1459.4
2974.699	1496.4
2978.005	1500.4
2981.308	1542.4
2984.609	1538.4
2987.907	1585.4
2991.202	1616.4
2994.494	1672.4
2997.784	1689.4
3001.07	1723.4
3004.355	1756.4
3007.636	1773.4
3010.915	1779.4
3014.191	1807.4
3017.464	1805.4
3020.734	1842.4
3024.002	1827.4
3027.267	1842.4
3030.53	1869.4
3033.789	1862.4
3037.046	1899.4
3040.301	1929.4
3043.552	1947.4
3046.801	1986.4
3050.048	2045.4
3053.291	2088.4
3056.532	2131.4
3059.771	2199.4
3063.006	2253.4
3066.239	2313.4
3069.469	2399.4
3072.697	2478.4
3075.922	2529.4
3079.144	2585.4
3082.364	2628.4
3085.581	2695.4
3088.795	2756.4
3092.007	2797.4
3095.216	2864.4
3098.423	2915.4
3101.627	2985.4
3104.828	3073.4
3108.026	3133.4
3111.222	3198.4
3114.416	3262.4
3117.607	3345.4
3120.795	3411.4
3123.98	3494.4
3127.163	3588.4
3130.344	3684.4
3133.521	3771.4
3136.696	3849.4
3139.869	3870.4
3143.039	3972.4
3146.206	4041.4
3149.371	4061.4
3152.533	4126.4
3155.693	4141.4
3158.85	4201.4
3162.005	4175.4
3165.157	4205.4
3168.306	4220.4
3171.453	4248.4
3174.597	4211.4
3177.739	4229.4
3180.878	4235.4
3184.014	4253.4
3187.149	4219.4
3190.28	4254.4
3193.409	4237.4
3196.536	4248.4
3199.659	4282.4
3202.781	4280.4
3205.9	4259.4
3209.016	4264.4
3212.13	4226.4
3215.241	4242.4
3218.35	4187.4
3221.456	4131.4
3224.56	4104.4
3227.661	4051.4
3230.76	3999.4
3233.856	3989.4
3236.95	3924.4
3240.041	3900.4
3243.13	3874.4
3246.216	3885.4
3249.3	3828.4
3252.382	3816.4
3255.46	3822.4
3258.537	3782.4
3261.611	3790.4
3264.682	3800.4
3267.751	3795.4
3270.818	3806.4
3273.882	3746.4
3276.943	3768.4
3280.002	3707.4
3283.059	3671.4
3286.113	3685.4
3289.165	3585.4
3292.214	3545.4
3295.261	3439.4
3298.306	3443.4
3301.348	3339.4
3304.387	3274.4
3307.425	3268.4
3310.459	3196.4
3313.492	3165.4
3316.521	3120.4
3319.549	3072.4
3322.574	3040.4
3325.597	3026.4
3328.617	3016.4
3331.635	3009.4
3334.65	2975.4
3337.663	2950.4
3340.674	2940.4
3343.682	2934.4
3346.688	2912.4
3349.691	2883.4
3352.692	2901.4
3355.691	2840.4
3358.687	2849.4
3361.681	2796.4
3364.673	2758.4
3367.662	2730.4
3370.649	2685.4
3373.633	2669.4
3376.615	2606.4
3379.595	2558.4
3382.572	2547.4
3385.547	2493.4
3388.52	2465.4
3391.49	2438.4
3394.458	2382.4
3397.424	2375.4
3400.387	2317.4
3403.348	2303.4
3406.307	2264.4
3409.263	2238.4
3412.217	2253.4
3415.168	2215.4
3418.118	2189.4
3421.065	2159.4
3424.009	2135.4
3426.951	2067.4
3429.891	2046.4
3432.829	1988.4
3435.764	1959.4
3438.697	1922.4
3441.628	1880.4
3444.557	1792.4
3447.483	1766.4
3450.407	1681.4
3453.328	1655.4
3456.247	1572.4
3459.164	1519.4
3462.079	1495.4
3464.991	1429.4
3467.902	1349.4
3470.809	1347.4
3473.715	1283.4
3476.618	1232.4
3479.519	1187.4
3482.418	1164.4
3485.315	1101.4
3488.209	1082.4
3491.101	1028.4
3493.99	1024.4
3496.878	961.4
3499.763	943.4
3502.646	908.4
3505.527	844.4
3508.405	803.4
3511.281	773.4
3514.155	747.4
3517.027	697.4
3519.897	667.4
3522.764	608.4
3525.629	554.4
3528.492	504.4
3531.352	487.4
3534.211	445.4
3537.067	377.4
3539.921	349.4
3542.773	318.4
3545.622	282.4
3548.469	259.4
3551.315	226.4
3554.157	207.4
3556.998	166.4
3559.837	146.4
3562.673	111.4
3565.507	74.4
3568.339	67.4
3571.169	44.4
3573.996	22.4
3576.822	12.4
3579.645	-24.6
3582.466	-36.6
3585.285	-56.6
3588.101	-81.6
3590.916	-109.6
3593.728	-132.6
3596.538	-123.6
3599.346	-164.6
3602.152	-168.6
3604.956	-185.6
3607.757	-209.6
3610.556	-229.6
3613.354	-243.6
3616.149	-257.6
3618.942	-268.6
3621.732	-276.6
3624.521	-301.6
3627.307	-312.6
3630.092	-322.6
3632.874	-329.6
3635.654	-334.6
3638.432	-341.6
3641.208	-354.6
3643.982	-363.6
3646.753	-371.6
3649.523	-384.6
3652.29	-401.6
3655.055	-393.6
3657.818	-417.6
3660.579	-425.6
3663.338	-440.6
3666.095	-438.6
3668.849	-450.6
3671.602	-456.6
3674.352	-468.6
3677.101	-475.6
3679.847	-488.6
3682.591	-486.6
3685.333	-496.6
3688.073	-501.6
3690.811	-507.6
3693.547	-508.6
3696.281	-517.6
3699.013	-526.6
3701.742	-533.6
3704.47	-530.6
3707.195	-541.6
3709.919	-545.6
3712.64	-548.6
3715.359	-548.6
3718.076	-550.6
3720.792	-557.6
3723.505	-555.6
3726.216	-563.6
3728.925	-567.6
3731.632	-566.6
3734.336	-576.6
3737.039	-579.6
3739.74	-580.6
3742.439	-578.6
3745.136	-586.6
3747.83	-592.6
3750.523	-585.6
3753.213	-584.6
3755.902	-594.6
3758.589	-592.6
3761.273	-595.6
3763.956	-603.6
3766.636	-600.6
3769.315	-604.6
3771.991	-606.6
3774.665	-609.6
3777.338	-606.6
3780.008	-614.6
3782.677	-615.6
3785.343	-609.6
3788.007	-613.6
3790.67	-614.6
3793.33	-616.6
3795.989	-617.6
3798.645	-613.6
3801.299	-614.6
3803.952	-618.6
3806.602	-632.6
3809.251	-629.6
3811.897	-623.6
3814.542	-623.6
3817.184	-623.6
3819.825	-622.6
3822.463	-624.6
3825.1	-630.6
3827.735	-623.6
3830.367	-628.6
3832.998	-633.6
3835.627	-633.6
3838.253	-638.6
3840.878	-641.6
3843.501	-634.6
3846.122	-631.6
3848.741	-637.6
3851.358	-634.6
3853.973	-637.6
3856.586	-636.6
3859.197	-641.6
3861.806	-644.6
3864.414	-640.6
3867.019	-636.6
3869.622	-637.6
3872.224	-637.6
3874.823	-618.6
3877.421	-604.6
3880.016	-595.6
3882.61	-572.6
3885.202	-568.6
3887.792	-584.6
3890.38	-607.6
3892.966	-630.6
3895.55	-635.6
3898.132	-650.6
3900.713	-658.6
3903.291	-648.6
3905.868	-647.6
3908.442	-654.6
3911.015	-652.6
3913.586	-648.6
3916.155	-650.6
3918.722	-653.6
3921.287	-660.6
3923.85	-658.6
3926.411	-654.6
3928.971	-664.6
3931.528	-660.6
3934.084	-657.6
3936.638	-655.6
3939.19	-655.6
3941.74	-651.6
3944.288	-658.6
3946.834	-646.6
3949.378	-653.6
3951.921	-654.6
3954.462	-655.6
3957	-652.6
3959.537	-656.6
3962.072	-650.6
3964.606	-654.6
3967.137	-658.6
3969.667	-655.6
3972.194	-647.6
3974.72	-657.6
3977.244	-649.6
3979.766	-646.6
3982.286	-644.6
3984.805	-645.6
3987.321	-642.6
3989.836	-646.6
3992.349	-640.6
3994.86	-632.6
3997.369	-648.6
3999.877	-640.6
4002.382	-639.6
4004.886	-637.6
4007.388	-635.6
4009.888	-637.6
4012.386	-641.6
4014.883	-634.6
4017.377	-636.6
4019.87	-635.6
4022.361	-637.6
4024.85	-643.6
4027.338	-639.6
4029.823	-647.6
4032.307	-645.6
4034.789	-646.6
4037.269	-637.6
4039.747	-649.6
4042.224	-647.6
4044.699	-643.6
4047.172	-646.6
4049.643	-643.6
4052.112	-649.6
4054.58	-650.6
4057.046	-646.6
4059.51	-645.6
4061.972	-647.6
4064.432	-643.6
4066.891	-644.6
4069.348	-641.6
4071.803	-638.6
4074.256	-638.6
4076.708	-637.6
4079.158	-640.6
4081.606	-643.6
4084.052	-647.6
4086.497	-643.6
4088.939	-641.6
4091.38	-641.6
4093.819	-638.6
4096.257	-678.6
4098.693	-676.6
4101.127	-677.6
4103.559	-674.6
4105.989	-394.6
4108.418	-371.6
4110.845	-351.6
4113.27	-319.6
4115.694	-283.6
4118.115	-240.6
4120.535	-638.6
4122.954	-647.6
4125.37	-636.6
4127.785	-644.6
4130.198	-642.6
4132.609	-652.6
4135.019	-679.6
4137.427	-679.6
4139.833	-678.6
4142.237	-679.6
