Data from 2018-2-14_conc=5_n=9_RamanShift_05.txt Node
Date: Wed Feb 14 14:33:25 IST 2018
User: aro
Spectrometer: QEPB0276
Trigger mode: 0
Integration Time (sec): 3.000000E1
Scans to average: 1
Electric dark correction enabled: true
Nonlinearity correction enabled: false
Boxcar width: 0
XAxis mode: Raman Shifts
Number of Pixels in Spectrum: 1044
>>>>>Begin Spectral Data<<<<<
160.701	-130.9
166.742	43.1
172.777	560.1
178.805	2070.1
184.826	5828.1
190.841	12190.1
196.849	19664.1
202.85	25050.1
208.845	26911.1
214.833	26572.1
220.815	26074.1
226.789	26013.1
232.758	25786.1
238.719	25670.1
244.674	25356.1
250.623	24849.1
256.565	24358.1
262.5	23856.1
268.429	23382.1
274.351	23055.1
280.267	22829.1
286.176	22530.1
292.079	22348.1
297.975	22157.1
303.865	21928.1
309.748	21865.1
315.625	21725.1
321.495	21582.1
327.359	21542.1
333.217	21519.1
339.068	21431.1
344.912	21457.1
350.751	21407.1
356.583	21366.1
362.408	21397.1
368.227	21400.1
374.04	21413.1
379.847	21430.1
385.647	21611.1
391.44	21617.1
397.228	21707.1
403.009	21828.1
408.784	21863.1
414.553	21958.1
420.315	21989.1
426.071	22059.1
431.821	21947.1
437.565	22039.1
443.302	21973.1
449.033	21927.1
454.758	21843.1
460.477	21865.1
466.189	21745.1
471.896	21626.1
477.596	21618.1
483.29	21648.1
488.978	21526.1
494.66	21425.1
500.335	21276.1
506.005	21066.1
511.668	20775.1
517.325	20558.1
522.977	20270.1
528.622	20147.1
534.261	19994.1
539.894	19880.1
545.521	19791.1
551.141	19725.1
556.756	19681.1
562.365	19508.1
567.968	19511.1
573.565	19423.1
579.155	19334.1
584.74	19224.1
590.319	19222.1
595.892	19093.1
601.459	19072.1
607.02	18888.1
612.575	18846.1
618.124	18740.1
623.667	18597.1
629.204	18490.1
634.735	18383.1
640.261	18350.1
645.781	18273.1
651.294	18221.1
656.802	18219.1
662.304	18151.1
667.8	18143.1
673.29	18114.1
678.775	18073.1
684.254	18010.1
689.726	17954.1
695.193	17918.1
700.655	17799.1
706.11	17730.1
711.56	17634.1
717.004	17569.1
722.442	17481.1
727.874	17444.1
733.301	17302.1
738.722	17301.1
744.137	17255.1
749.547	17248.1
754.951	17234.1
760.349	17206.1
765.741	17249.1
771.128	17287.1
776.509	17316.1
781.885	17314.1
787.254	17244.1
792.618	17183.1
797.977	17110.1
803.33	16961.1
808.677	16841.1
814.019	16775.1
819.355	16721.1
824.686	16672.1
830.011	16563.1
835.33	16583.1
840.644	16589.1
845.952	16586.1
851.255	16674.1
856.552	16672.1
861.844	16609.1
867.13	16552.1
872.41	16479.1
877.686	16399.1
882.955	16250.1
888.219	16151.1
893.478	16007.1
898.731	15746.1
903.979	15604.1
909.221	15460.1
914.458	15494.1
919.69	15454.1
924.916	15479.1
930.136	15544.1
935.351	15513.1
940.561	15577.1
945.766	15521.1
950.965	15444.1
956.158	15321.1
961.347	15191.1
966.529	14990.1
971.707	14800.1
976.879	14613.1
982.046	14508.1
987.208	14438.1
992.364	14440.1
997.515	14538.1
1002.66	14578.1
1007.801	14794.1
1012.936	14912.1
1018.066	14965.1
1023.19	14959.1
1028.309	14893.1
1033.423	14875.1
1038.532	14857.1
1043.636	14683.1
1048.734	14504.1
1053.827	14308.1
1058.915	14195.1
1063.998	14128.1
1069.075	14031.1
1074.147	14070.1
1079.214	14068.1
1084.276	14218.1
1089.333	14276.1
1094.385	14277.1
1099.431	14401.1
1104.472	14382.1
1109.509	14295.1
1114.54	14129.1
1119.565	13930.1
1124.586	13754.1
1129.602	13624.1
1134.613	13545.1
1139.618	13437.1
1144.619	13456.1
1149.614	13389.1
1154.604	13489.1
1159.589	13499.1
1164.57	13522.1
1169.545	13524.1
1174.515	13514.1
1179.48	13431.1
1184.44	13323.1
1189.395	13284.1
1194.345	13169.1
1199.29	13122.1
1204.23	13084.1
1209.165	13142.1
1214.095	13223.1
1219.021	13300.1
1223.941	13376.1
1228.856	13438.1
1233.766	13427.1
1238.672	13483.1
1243.572	13424.1
1248.467	13364.1
1253.358	13196.1
1258.244	13081.1
1263.124	12832.1
1268	12692.1
1272.871	12493.1
1277.737	12393.1
1282.599	12326.1
1287.455	12349.1
1292.306	12408.1
1297.153	12419.1
1301.995	12434.1
1306.832	12470.1
1311.664	12528.1
1316.491	12480.1
1321.314	12342.1
1326.132	12163.1
1330.945	11861.1
1335.753	11614.1
1340.556	11250.1
1345.354	11031.1
1350.148	10874.1
1354.937	10701.1
1359.722	10694.1
1364.501	10740.1
1369.276	10937.1
1374.046	11012.1
1378.811	11201.1
1383.572	11411.1
1388.327	11454.1
1393.079	11366.1
1397.825	11221.1
1402.567	11109.1
1407.304	10905.1
1412.036	10890.1
1416.764	10784.1
1421.487	10697.1
1426.205	10608.1
1430.919	10585.1
1435.628	10609.1
1440.333	10637.1
1445.032	10637.1
1449.727	10652.1
1454.418	10626.1
1459.104	10519.1
1463.785	10275.1
1468.462	10081.1
1473.134	9857.1
1477.802	9624.1
1482.465	9488.1
1487.123	9343.1
1491.777	9317.1
1496.426	9329.1
1501.071	9442.1
1505.711	9591.1
1510.347	9749.1
1514.978	9973.1
1519.604	10088.1
1524.226	10164.1
1528.844	10217.1
1533.457	10250.1
1538.065	10179.1
1542.669	10148.1
1547.269	10023.1
1551.864	9982.1
1556.454	10006.1
1561.041	9959.1
1565.622	9940.1
1570.199	9958.1
1574.772	10025.1
1579.34	10092.1
1583.904	10178.1
1588.464	10184.1
1593.019	10171.1
1597.569	10190.1
1602.115	10079.1
1606.657	10023.1
1611.195	9962.1
1615.728	9905.1
1620.256	9860.1
1624.78	9853.1
1629.3	9831.1
1633.816	9834.1
1638.327	9899.1
1642.834	9937.1
1647.336	9967.1
1651.834	10017.1
1656.328	9905.1
1660.817	9900.1
1665.302	9792.1
1669.783	9606.1
1674.259	9421.1
1678.732	9111.1
1683.199	8789.1
1687.663	8523.1
1692.122	8208.1
1696.577	8021.1
1701.028	7974.1
1705.474	8080.1
1709.917	8195.1
1714.355	8254.1
1718.788	8220.1
1723.218	8155.1
1727.643	7986.1
1732.064	7797.1
1736.481	7623.1
1740.893	7457.1
1745.301	7270.1
1749.705	7094.1
1754.105	6884.1
1758.501	6702.1
1762.893	6510.1
1767.28	6337.1
1771.663	6177.1
1776.042	6076.1
1780.417	6024.1
1784.787	5991.1
1789.154	6007.1
1793.516	6170.1
1797.874	6228.1
1802.228	6367.1
1806.578	6450.1
1810.924	6481.1
1815.266	6412.1
1819.603	6325.1
1823.937	6238.1
1828.266	6130.1
1832.591	6016.1
1836.913	5973.1
1841.23	5887.1
1845.543	5859.1
1849.852	5832.1
1854.156	5790.1
1858.457	5780.1
1862.754	5761.1
1867.047	5742.1
1871.335	5787.1
1875.62	5741.1
1879.9	5746.1
1884.177	5670.1
1888.449	5643.1
1892.718	5583.1
1896.982	5526.1
1901.243	5413.1
1905.499	5399.1
1909.752	5342.1
1914	5337.1
1918.245	5381.1
1922.485	5398.1
1926.722	5476.1
1930.954	5513.1
1935.183	5593.1
1939.408	5628.1
1943.628	5691.1
1947.845	5698.1
1952.058	5686.1
1956.267	5667.1
1960.472	5599.1
1964.673	5499.1
1968.87	5421.1
1973.063	5392.1
1977.252	5301.1
1981.438	5214.1
1985.619	5189.1
1989.797	5155.1
1993.971	5114.1
1998.14	5114.1
2002.306	5054.1
2006.469	5081.1
2010.627	5018.1
2014.781	5015.1
2018.932	4948.1
2023.078	4917.1
2027.221	4857.1
2031.36	4766.1
2035.495	4685.1
2039.627	4646.1
2043.754	4555.1
2047.878	4507.1
2051.998	4486.1
2056.114	4479.1
2060.226	4507.1
2064.334	4469.1
2068.439	4473.1
2072.54	4502.1
2076.637	4510.1
2080.73	4565.1
2084.82	4559.1
2088.906	4575.1
2092.988	4612.1
2097.066	4551.1
2101.14	4513.1
2105.211	4519.1
2109.278	4507.1
2113.342	4467.1
2117.401	4438.1
2121.457	4417.1
2125.509	4425.1
2129.558	4401.1
2133.602	4402.1
2137.643	4342.1
2141.681	4358.1
2145.714	4296.1
2149.744	4283.1
2153.77	4268.1
2157.793	4219.1
2161.812	4174.1
2165.827	4094.1
2169.838	4064.1
2173.846	3988.1
2177.851	3938.1
2181.851	3897.1
2185.848	3824.1
2189.841	3786.1
2193.831	3741.1
2197.817	3717.1
2201.799	3694.1
2205.778	3671.1
2209.753	3640.1
2213.725	3666.1
2217.693	3643.1
2221.657	3653.1
2225.618	3644.1
2229.575	3614.1
2233.529	3595.1
2237.479	3570.1
2241.425	3525.1
2245.368	3483.1
2249.307	3428.1
2253.243	3390.1
2257.175	3327.1
2261.104	3308.1
2265.029	3265.1
2268.95	3245.1
2272.868	3190.1
2276.783	3159.1
2280.694	3114.1
2284.601	3089.1
2288.505	3091.1
2292.405	3027.1
2296.302	3013.1
2300.195	2989.1
2304.085	2968.1
2307.971	2925.1
2311.854	2873.1
2315.734	2831.1
2319.609	2787.1
2323.482	2762.1
2327.351	2752.1
2331.216	2731.1
2335.078	2732.1
2338.937	2677.1
2342.792	2700.1
2346.643	2671.1
2350.492	2682.1
2354.336	2686.1
2358.178	2702.1
2362.015	2697.1
2365.85	2684.1
2369.681	2680.1
2373.508	2693.1
2377.333	2703.1
2381.153	2673.1
2384.971	2679.1
2388.785	2645.1
2392.595	2616.1
2396.402	2601.1
2400.206	2582.1
2404.007	2561.1
2407.804	2558.1
2411.597	2544.1
2415.388	2524.1
2419.174	2516.1
2422.958	2493.1
2426.738	2458.1
2430.515	2449.1
2434.289	2424.1
2438.059	2424.1
2441.825	2393.1
2445.589	2372.1
2449.349	2347.1
2453.106	2303.1
2456.859	2305.1
2460.61	2240.1
2464.356	2231.1
2468.1	2190.1
2471.84	2172.1
2475.577	2149.1
2479.311	2146.1
2483.041	2117.1
2486.768	2107.1
2490.492	2100.1
2494.213	2113.1
2497.93	2092.1
2501.644	2099.1
2505.355	2071.1
2509.062	2091.1
2512.766	2060.1
2516.467	2039.1
2520.165	2044.1
2523.859	1993.1
2527.551	2007.1
2531.239	1976.1
2534.923	1960.1
2538.605	1976.1
2542.283	1956.1
2545.958	1937.1
2549.63	1952.1
2553.299	1933.1
2556.964	1945.1
2560.626	1927.1
2564.285	1923.1
2567.941	1925.1
2571.594	1905.1
2575.243	1867.1
2578.89	1872.1
2582.533	1856.1
2586.173	1856.1
2589.809	1833.1
2593.443	1827.1
2597.073	1789.1
2600.701	1800.1
2604.325	1776.1
2607.946	1764.1
2611.564	1745.1
2615.178	1757.1
2618.79	1730.1
2622.398	1714.1
2626.004	1706.1
2629.606	1692.1
2633.205	1667.1
2636.801	1633.1
2640.394	1622.1
2643.983	1590.1
2647.57	1570.1
2651.153	1558.1
2654.734	1526.1
2658.311	1505.1
2661.885	1473.1
2665.456	1462.1
2669.025	1448.1
2672.589	1421.1
2676.151	1402.1
2679.71	1392.1
2683.266	1387.1
2686.819	1327.1
2690.368	1320.1
2693.915	1284.1
2697.458	1237.1
2700.999	1211.1
2704.536	1196.1
2708.071	1188.1
2711.602	1156.1
2715.13	1125.1
2718.656	1108.1
2722.178	1086.1
2725.697	1064.1
2729.214	1053.1
2732.727	1041.1
2736.237	1027.1
2739.744	1020.1
2743.249	1029.1
2746.75	1044.1
2750.248	1047.1
2753.743	1055.1
2757.236	1081.1
2760.725	1052.1
2764.211	1086.1
2767.695	1094.1
2771.175	1091.1
2774.652	1076.1
2778.127	1063.1
2781.598	1041.1
2785.067	1050.1
2788.532	1034.1
2791.995	1053.1
2795.455	1040.1
2798.911	1047.1
2802.365	1049.1
2805.816	1054.1
2809.264	1049.1
2812.709	1048.1
2816.151	1034.1
2819.59	1060.1
2823.026	1038.1
2826.46	1053.1
2829.89	1052.1
2833.318	1060.1
2836.742	1061.1
2840.164	1074.1
2843.583	1086.1
2846.999	1077.1
2850.412	1093.1
2853.822	1096.1
2857.229	1120.1
2860.634	1128.1
2864.035	1144.1
2867.434	1172.1
2870.83	1196.1
2874.223	1204.1
2877.613	1228.1
2881	1251.1
2884.385	1250.1
2887.766	1246.1
2891.145	1238.1
2894.521	1247.1
2897.894	1227.1
2901.264	1232.1
2904.631	1243.1
2907.996	1257.1
2911.358	1252.1
2914.717	1250.1
2918.073	1273.1
2921.426	1293.1
2924.777	1307.1
2928.124	1307.1
2931.469	1333.1
2934.811	1348.1
2938.15	1351.1
2941.487	1386.1
2944.821	1381.1
2948.152	1371.1
2951.48	1358.1
2954.805	1344.1
2958.128	1323.1
2961.447	1331.1
2964.765	1310.1
2968.079	1320.1
2971.39	1334.1
2974.699	1344.1
2978.005	1370.1
2981.308	1383.1
2984.609	1396.1
2987.907	1416.1
2991.202	1454.1
2994.494	1510.1
2997.784	1520.1
3001.07	1539.1
3004.355	1587.1
3007.636	1597.1
3010.915	1618.1
3014.191	1626.1
3017.464	1641.1
3020.734	1660.1
3024.002	1668.1
3027.267	1678.1
3030.53	1689.1
3033.789	1713.1
3037.046	1731.1
3040.301	1741.1
3043.552	1790.1
3046.801	1821.1
3050.048	1858.1
3053.291	1893.1
3056.532	1946.1
3059.771	2010.1
3063.006	2043.1
3066.239	2114.1
3069.469	2174.1
3072.697	2248.1
3075.922	2290.1
3079.144	2354.1
3082.364	2389.1
3085.581	2455.1
3088.795	2498.1
3092.007	2551.1
3095.216	2602.1
3098.423	2643.1
3101.627	2712.1
3104.828	2775.1
3108.026	2814.1
3111.222	2887.1
3114.416	2956.1
3117.607	3012.1
3120.795	3089.1
3123.98	3148.1
3127.163	3221.1
3130.344	3294.1
3133.521	3385.1
3136.696	3467.1
3139.869	3539.1
3143.039	3580.1
3146.206	3630.1
3149.371	3689.1
3152.533	3742.1
3155.693	3723.1
3158.85	3751.1
3162.005	3795.1
3165.157	3782.1
3168.306	3793.1
3171.453	3798.1
3174.597	3814.1
3177.739	3867.1
3180.878	3823.1
3184.014	3831.1
3187.149	3816.1
3190.28	3831.1
3193.409	3821.1
3196.536	3844.1
3199.659	3859.1
3202.781	3883.1
3205.9	3852.1
3209.016	3847.1
3212.13	3856.1
3215.241	3817.1
3218.35	3774.1
3221.456	3730.1
3224.56	3686.1
3227.661	3654.1
3230.76	3605.1
3233.856	3573.1
3236.95	3540.1
3240.041	3518.1
3243.13	3468.1
3246.216	3462.1
3249.3	3426.1
3252.382	3426.1
3255.46	3423.1
3258.537	3367.1
3261.611	3399.1
3264.682	3381.1
3267.751	3413.1
3270.818	3390.1
3273.882	3395.1
3276.943	3374.1
3280.002	3336.1
3283.059	3346.1
3286.113	3266.1
3289.165	3229.1
3292.214	3197.1
3295.261	3155.1
3298.306	3112.1
3301.348	3055.1
3304.387	3010.1
3307.425	2951.1
3310.459	2898.1
3313.492	2856.1
3316.521	2831.1
3319.549	2827.1
3322.574	2766.1
3325.597	2731.1
3328.617	2708.1
3331.635	2693.1
3334.65	2694.1
3337.663	2695.1
3340.674	2662.1
3343.682	2636.1
3346.688	2640.1
3349.691	2661.1
3352.692	2618.1
3355.691	2609.1
3358.687	2584.1
3361.681	2543.1
3364.673	2504.1
3367.662	2477.1
3370.649	2448.1
3373.633	2420.1
3376.615	2349.1
3379.595	2337.1
3382.572	2318.1
3385.547	2276.1
3388.52	2235.1
3391.49	2201.1
3394.458	2180.1
3397.424	2160.1
3400.387	2107.1
3403.348	2095.1
3406.307	2086.1
3409.263	2047.1
3412.217	1985.1
3415.168	1997.1
3418.118	1963.1
3421.065	1927.1
3424.009	1919.1
3426.951	1891.1
3429.891	1833.1
3432.829	1809.1
3435.764	1779.1
3438.697	1721.1
3441.628	1690.1
3444.557	1608.1
3447.483	1575.1
3450.407	1540.1
3453.328	1484.1
3456.247	1436.1
3459.164	1370.1
3462.079	1343.1
3464.991	1294.1
3467.902	1233.1
3470.809	1170.1
3473.715	1152.1
3476.618	1086.1
3479.519	1052.1
3482.418	1032.1
3485.315	1005.1
3488.209	963.1
3491.101	947.1
3493.99	885.1
3496.878	848.1
3499.763	823.1
3502.646	776.1
3505.527	749.1
3508.405	715.1
3511.281	668.1
3514.155	652.1
3517.027	594.1
3519.897	556.1
3522.764	508.1
3525.629	492.1
3528.492	441.1
3531.352	402.1
3534.211	379.1
3537.067	338.1
3539.921	298.1
3542.773	270.1
3545.622	230.1
3548.469	204.1
3551.315	182.1
3554.157	176.1
3556.998	137.1
3559.837	123.1
3562.673	85.1
3565.507	69.1
3568.339	43.1
3571.169	22.1
3573.996	12.1
3576.822	-6.9
3579.645	-39.9
3582.466	-50.9
3585.285	-69.9
3588.101	-91.9
3590.916	-110.9
3593.728	-134.9
3596.538	-139.9
3599.346	-162.9
3602.152	-180.9
3604.956	-184.9
3607.757	-209.9
3610.556	-220.9
3613.354	-237.9
3616.149	-253.9
3618.942	-263.9
3621.732	-267.9
3624.521	-287.9
3627.307	-288.9
3630.092	-296.9
3632.874	-304.9
3635.654	-313.9
3638.432	-328.9
3641.208	-336.9
3643.982	-349.9
3646.753	-353.9
3649.523	-356.9
3652.29	-368.9
3655.055	-375.9
3657.818	-392.9
3660.579	-400.9
3663.338	-417.9
3666.095	-425.9
3668.849	-442.9
3671.602	-444.9
3674.352	-447.9
3677.101	-446.9
3679.847	-462.9
3682.591	-465.9
3685.333	-471.9
3688.073	-474.9
3690.811	-474.9
3693.547	-476.9
3696.281	-489.9
3699.013	-491.9
3701.742	-496.9
3704.47	-506.9
3707.195	-510.9
3709.919	-510.9
3712.64	-520.9
3715.359	-512.9
3718.076	-524.9
3720.792	-518.9
3723.505	-520.9
3726.216	-536.9
3728.925	-530.9
3731.632	-542.9
3734.336	-546.9
3737.039	-542.9
3739.74	-539.9
3742.439	-551.9
3745.136	-550.9
3747.83	-555.9
3750.523	-543.9
3753.213	-555.9
3755.902	-554.9
3758.589	-554.9
3761.273	-561.9
3763.956	-565.9
3766.636	-560.9
3769.315	-568.9
3771.991	-562.9
3774.665	-574.9
3777.338	-567.9
3780.008	-573.9
3782.677	-575.9
3785.343	-570.9
3788.007	-577.9
3790.67	-575.9
3793.33	-577.9
3795.989	-581.9
3798.645	-577.9
3801.299	-579.9
3803.952	-587.9
3806.602	-590.9
3809.251	-592.9
3811.897	-587.9
3814.542	-590.9
3817.184	-585.9
3819.825	-583.9
3822.463	-581.9
3825.1	-588.9
3827.735	-582.9
3830.367	-583.9
3832.998	-598.9
3835.627	-594.9
3838.253	-600.9
3840.878	-588.9
3843.501	-594.9
3846.122	-592.9
3848.741	-592.9
3851.358	-594.9
3853.973	-598.9
3856.586	-593.9
3859.197	-603.9
3861.806	-601.9
3864.414	-594.9
3867.019	-594.9
3869.622	-597.9
3872.224	-598.9
3874.823	-581.9
3877.421	-561.9
3880.016	-553.9
3882.61	-527.9
3885.202	-524.9
3887.792	-541.9
3890.38	-570.9
3892.966	-585.9
3895.55	-601.9
3898.132	-610.9
3900.713	-617.9
3903.291	-606.9
3905.868	-608.9
3908.442	-608.9
3911.015	-612.9
3913.586	-604.9
3916.155	-603.9
3918.722	-611.9
3921.287	-606.9
3923.85	-611.9
3926.411	-611.9
3928.971	-617.9
3931.528	-615.9
3934.084	-613.9
3936.638	-611.9
3939.19	-615.9
3941.74	-609.9
3944.288	-617.9
3946.834	-615.9
3949.378	-617.9
3951.921	-615.9
3954.462	-624.9
3957	-613.9
3959.537	-617.9
3962.072	-615.9
3964.606	-614.9
3967.137	-615.9
3969.667	-614.9
3972.194	-603.9
3974.72	-614.9
3977.244	-599.9
3979.766	-598.9
3982.286	-603.9
3984.805	-601.9
3987.321	-603.9
3989.836	-603.9
3992.349	-600.9
3994.86	-601.9
3997.369	-605.9
3999.877	-598.9
4002.382	-600.9
4004.886	-597.9
4007.388	-596.9
4009.888	-596.9
4012.386	-606.9
4014.883	-593.9
4017.377	-602.9
4019.87	-598.9
4022.361	-596.9
4024.85	-601.9
4027.338	-600.9
4029.823	-602.9
4032.307	-606.9
4034.789	-600.9
4037.269	-595.9
4039.747	-599.9
4042.224	-600.9
4044.699	-598.9
4047.172	-605.9
4049.643	-596.9
4052.112	-608.9
4054.58	-604.9
4057.046	-605.9
4059.51	-599.9
4061.972	-601.9
4064.432	-603.9
4066.891	-601.9
4069.348	-601.9
4071.803	-598.9
4074.256	-599.9
4076.708	-601.9
4079.158	-599.9
4081.606	-609.9
4084.052	-606.9
4086.497	-604.9
4088.939	-607.9
4091.38	-606.9
4093.819	-602.9
4096.257	-634.9
4098.693	-636.9
4101.127	-638.9
4103.559	-630.9
4105.989	-359.9
4108.418	-334.9
4110.845	-310.9
4113.27	-299.9
4115.694	-253.9
4118.115	-215.9
4120.535	-600.9
4122.954	-602.9
4125.37	-593.9
4127.785	-603.9
4130.198	-603.9
4132.609	-602.9
4135.019	-637.9
4137.427	-636.9
4139.833	-635.9
4142.237	-631.9
