Data from 2018-2-14_conc=2_n=6_RamanShift_01.txt Node
Date: Wed Feb 14 11:17:56 IST 2018
User: aro
Spectrometer: QEPB0276
Trigger mode: 0
Integration Time (sec): 3.000000E1
Scans to average: 1
Electric dark correction enabled: true
Nonlinearity correction enabled: false
Boxcar width: 0
XAxis mode: Raman Shifts
Number of Pixels in Spectrum: 1044
>>>>>Begin Spectral Data<<<<<
160.701	-131.8
166.742	38.2
172.777	592.2
178.805	2229.2
184.826	6187.2
190.841	12907.2
196.849	20740.2
202.85	26256.2
208.845	28175.2
214.833	27900.2
220.815	27359.2
226.789	27177.2
232.758	27088.2
238.719	27024.2
244.674	26550.2
250.623	26148.2
256.565	25614.2
262.5	25116.2
268.429	24622.2
274.351	24286.2
280.267	23914.2
286.176	23697.2
292.079	23471.2
297.975	23243.2
303.865	23035.2
309.748	22900.2
315.625	22817.2
321.495	22602.2
327.359	22597.2
333.217	22537.2
339.068	22471.2
344.912	22512.2
350.751	22389.2
356.583	22465.2
362.408	22351.2
368.227	22414.2
374.04	22413.2
379.847	22509.2
385.647	22545.2
391.44	22664.2
397.228	22730.2
403.009	22847.2
408.784	22937.2
414.553	22924.2
420.315	22980.2
426.071	22997.2
431.821	22990.2
437.565	22968.2
443.302	22973.2
449.033	22957.2
454.758	22876.2
460.477	22869.2
466.189	22798.2
471.896	22742.2
477.596	22682.2
483.29	22583.2
488.978	22574.2
494.66	22549.2
500.335	22371.2
506.005	22114.2
511.668	21892.2
517.325	21627.2
522.977	21497.2
528.622	21265.2
534.261	21128.2
539.894	21035.2
545.521	20946.2
551.141	20930.2
556.756	20845.2
562.365	20723.2
567.968	20599.2
573.565	20522.2
579.155	20516.2
584.74	20413.2
590.319	20350.2
595.892	20242.2
601.459	20190.2
607.02	20066.2
612.575	19990.2
618.124	19820.2
623.667	19766.2
629.204	19655.2
634.735	19617.2
640.261	19478.2
645.781	19460.2
651.294	19396.2
656.802	19363.2
662.304	19281.2
667.8	19284.2
673.29	19258.2
678.775	19223.2
684.254	19195.2
689.726	19093.2
695.193	19015.2
700.655	18913.2
706.11	18866.2
711.56	18787.2
717.004	18685.2
722.442	18632.2
727.874	18512.2
733.301	18478.2
738.722	18431.2
744.137	18396.2
749.547	18401.2
754.951	18374.2
760.349	18357.2
765.741	18438.2
771.128	18396.2
776.509	18379.2
781.885	18399.2
787.254	18378.2
792.618	18305.2
797.977	18176.2
803.33	18080.2
808.677	17931.2
814.019	17822.2
819.355	17779.2
824.686	17686.2
830.011	17626.2
835.33	17642.2
840.644	17669.2
845.952	17677.2
851.255	17651.2
856.552	17730.2
861.844	17614.2
867.13	17671.2
872.41	17547.2
877.686	17465.2
882.955	17342.2
888.219	17231.2
893.478	17012.2
898.731	16824.2
903.979	16643.2
909.221	16508.2
914.458	16508.2
919.69	16463.2
924.916	16488.2
930.136	16546.2
935.351	16632.2
940.561	16612.2
945.766	16580.2
950.965	16485.2
956.158	16410.2
961.347	16200.2
966.529	16003.2
971.707	15801.2
976.879	15608.2
982.046	15489.2
987.208	15426.2
992.364	15446.2
997.515	15534.2
1002.66	15668.2
1007.801	15826.2
1012.936	15959.2
1018.066	15882.2
1023.19	15960.2
1028.309	15950.2
1033.423	15916.2
1038.532	15839.2
1043.636	15698.2
1048.734	15502.2
1053.827	15363.2
1058.915	15180.2
1063.998	15033.2
1069.075	15033.2
1074.147	15033.2
1079.214	15091.2
1084.276	15184.2
1089.333	15234.2
1094.385	15364.2
1099.431	15389.2
1104.472	15357.2
1109.509	15270.2
1114.54	15151.2
1119.565	14924.2
1124.586	14733.2
1129.602	14557.2
1134.613	14534.2
1139.618	14393.2
1144.619	14339.2
1149.614	14370.2
1154.604	14387.2
1159.589	14476.2
1164.57	14482.2
1169.545	14513.2
1174.515	14487.2
1179.48	14403.2
1184.44	14300.2
1189.395	14210.2
1194.345	14109.2
1199.29	14054.2
1204.23	13984.2
1209.165	14081.2
1214.095	14180.2
1219.021	14221.2
1223.941	14284.2
1228.856	14369.2
1233.766	14446.2
1238.672	14414.2
1243.572	14479.2
1248.467	14318.2
1253.358	14185.2
1258.244	13983.2
1263.124	13772.2
1268	13572.2
1272.871	13373.2
1277.737	13351.2
1282.599	13278.2
1287.455	13224.2
1292.306	13274.2
1297.153	13328.2
1301.995	13404.2
1306.832	13430.2
1311.664	13473.2
1316.491	13421.2
1321.314	13334.2
1326.132	13124.2
1330.945	12848.2
1335.753	12530.2
1340.556	12232.2
1345.354	12032.2
1350.148	11777.2
1354.937	11704.2
1359.722	11653.2
1364.501	11661.2
1369.276	11787.2
1374.046	11907.2
1378.811	12087.2
1383.572	12240.2
1388.327	12244.2
1393.079	12338.2
1397.825	12105.2
1402.567	11978.2
1407.304	11780.2
1412.036	11649.2
1416.764	11625.2
1421.487	11555.2
1426.205	11491.2
1430.919	11425.2
1435.628	11441.2
1440.333	11456.2
1445.032	11484.2
1449.727	11507.2
1454.418	11504.2
1459.104	11330.2
1463.785	11162.2
1468.462	10966.2
1473.134	10738.2
1477.802	10504.2
1482.465	10307.2
1487.123	10191.2
1491.777	10179.2
1496.426	10187.2
1501.071	10331.2
1505.711	10461.2
1510.347	10610.2
1514.978	10807.2
1519.604	10919.2
1524.226	11031.2
1528.844	11063.2
1533.457	11026.2
1538.065	11018.2
1542.669	10963.2
1547.269	10860.2
1551.864	10778.2
1556.454	10760.2
1561.041	10777.2
1565.622	10738.2
1570.199	10788.2
1574.772	10840.2
1579.34	10897.2
1583.904	10942.2
1588.464	10996.2
1593.019	10986.2
1597.569	10925.2
1602.115	10905.2
1606.657	10777.2
1611.195	10736.2
1615.728	10693.2
1620.256	10611.2
1624.78	10635.2
1629.3	10661.2
1633.816	10666.2
1638.327	10708.2
1642.834	10735.2
1647.336	10805.2
1651.834	10850.2
1656.328	10788.2
1660.817	10758.2
1665.302	10669.2
1669.783	10445.2
1674.259	10238.2
1678.732	9956.2
1683.199	9603.2
1687.663	9324.2
1692.122	8999.2
1696.577	8835.2
1701.028	8750.2
1705.474	8799.2
1709.917	8930.2
1714.355	9014.2
1718.788	8973.2
1723.218	8846.2
1727.643	8664.2
1732.064	8489.2
1736.481	8300.2
1740.893	8131.2
1745.301	7932.2
1749.705	7747.2
1754.105	7542.2
1758.501	7274.2
1762.893	7080.2
1767.28	6920.2
1771.663	6807.2
1776.042	6683.2
1780.417	6633.2
1784.787	6608.2
1789.154	6665.2
1793.516	6749.2
1797.874	6877.2
1802.228	6941.2
1806.578	7053.2
1810.924	7062.2
1815.266	7023.2
1819.603	6917.2
1823.937	6833.2
1828.266	6705.2
1832.591	6596.2
1836.913	6529.2
1841.23	6484.2
1845.543	6433.2
1849.852	6368.2
1854.156	6357.2
1858.457	6333.2
1862.754	6323.2
1867.047	6292.2
1871.335	6298.2
1875.62	6314.2
1879.9	6310.2
1884.177	6226.2
1888.449	6185.2
1892.718	6181.2
1896.982	6048.2
1901.243	6009.2
1905.499	5925.2
1909.752	5940.2
1914	5916.2
1918.245	5981.2
1922.485	6017.2
1926.722	6044.2
1930.954	6096.2
1935.183	6167.2
1939.408	6237.2
1943.628	6256.2
1947.845	6278.2
1952.058	6228.2
1956.267	6184.2
1960.472	6151.2
1964.673	6050.2
1968.87	5976.2
1973.063	5867.2
1977.252	5796.2
1981.438	5740.2
1985.619	5693.2
1989.797	5654.2
1993.971	5620.2
1998.14	5564.2
2002.306	5534.2
2006.469	5524.2
2010.627	5530.2
2014.781	5461.2
2018.932	5416.2
2023.078	5417.2
2027.221	5307.2
2031.36	5255.2
2035.495	5141.2
2039.627	5061.2
2043.754	5027.2
2047.878	4943.2
2051.998	4968.2
2056.114	4913.2
2060.226	4913.2
2064.334	4918.2
2068.439	4933.2
2072.54	4954.2
2076.637	5014.2
2080.73	5042.2
2084.82	5030.2
2088.906	5053.2
2092.988	5063.2
2097.066	5043.2
2101.14	4987.2
2105.211	4985.2
2109.278	4974.2
2113.342	4907.2
2117.401	4899.2
2121.457	4852.2
2125.509	4841.2
2129.558	4802.2
2133.602	4808.2
2137.643	4755.2
2141.681	4730.2
2145.714	4695.2
2149.744	4673.2
2153.77	4654.2
2157.793	4597.2
2161.812	4544.2
2165.827	4485.2
2169.838	4430.2
2173.846	4332.2
2177.851	4255.2
2181.851	4215.2
2185.848	4157.2
2189.841	4122.2
2193.831	4051.2
2197.817	4030.2
2201.799	4048.2
2205.778	3977.2
2209.753	3961.2
2213.725	3981.2
2217.693	3960.2
2221.657	3974.2
2225.618	3974.2
2229.575	3921.2
2233.529	3890.2
2237.479	3843.2
2241.425	3830.2
2245.368	3781.2
2249.307	3692.2
2253.243	3652.2
2257.175	3603.2
2261.104	3535.2
2265.029	3534.2
2268.95	3492.2
2272.868	3447.2
2276.783	3416.2
2280.694	3391.2
2284.601	3342.2
2288.505	3328.2
2292.405	3253.2
2296.302	3243.2
2300.195	3231.2
2304.085	3186.2
2307.971	3141.2
2311.854	3102.2
2315.734	3043.2
2319.609	2972.2
2323.482	2943.2
2327.351	2915.2
2331.216	2938.2
2335.078	2898.2
2338.937	2844.2
2342.792	2870.2
2346.643	2854.2
2350.492	2832.2
2354.336	2886.2
2358.178	2854.2
2362.015	2859.2
2365.85	2879.2
2369.681	2894.2
2373.508	2870.2
2377.333	2869.2
2381.153	2843.2
2384.971	2839.2
2388.785	2793.2
2392.595	2821.2
2396.402	2793.2
2400.206	2752.2
2404.007	2707.2
2407.804	2704.2
2411.597	2736.2
2415.388	2690.2
2419.174	2664.2
2422.958	2639.2
2426.738	2623.2
2430.515	2601.2
2434.289	2572.2
2438.059	2588.2
2441.825	2542.2
2445.589	2517.2
2449.349	2482.2
2453.106	2458.2
2456.859	2425.2
2460.61	2386.2
2464.356	2376.2
2468.1	2323.2
2471.84	2302.2
2475.577	2310.2
2479.311	2284.2
2483.041	2275.2
2486.768	2264.2
2490.492	2244.2
2494.213	2263.2
2497.93	2236.2
2501.644	2223.2
2505.355	2216.2
2509.062	2212.2
2512.766	2204.2
2516.467	2181.2
2520.165	2170.2
2523.859	2148.2
2527.551	2129.2
2531.239	2100.2
2534.923	2116.2
2538.605	2100.2
2542.283	2101.2
2545.958	2083.2
2549.63	2102.2
2553.299	2102.2
2556.964	2089.2
2560.626	2096.2
2564.285	2072.2
2567.941	2064.2
2571.594	2029.2
2575.243	2002.2
2578.89	2009.2
2582.533	1978.2
2586.173	1975.2
2589.809	1957.2
2593.443	1936.2
2597.073	1914.2
2600.701	1906.2
2604.325	1900.2
2607.946	1877.2
2611.564	1883.2
2615.178	1861.2
2618.79	1851.2
2622.398	1841.2
2626.004	1814.2
2629.606	1789.2
2633.205	1785.2
2636.801	1742.2
2640.394	1727.2
2643.983	1697.2
2647.57	1672.2
2651.153	1652.2
2654.734	1621.2
2658.311	1595.2
2661.885	1563.2
2665.456	1566.2
2669.025	1549.2
2672.589	1501.2
2676.151	1503.2
2679.71	1479.2
2683.266	1463.2
2686.819	1439.2
2690.368	1417.2
2693.915	1380.2
2697.458	1354.2
2700.999	1313.2
2704.536	1289.2
2708.071	1270.2
2711.602	1255.2
2715.13	1210.2
2718.656	1196.2
2722.178	1169.2
2725.697	1160.2
2729.214	1156.2
2732.727	1133.2
2736.237	1131.2
2739.744	1135.2
2743.249	1121.2
2746.75	1127.2
2750.248	1158.2
2753.743	1138.2
2757.236	1177.2
2760.725	1159.2
2764.211	1192.2
2767.695	1177.2
2771.175	1185.2
2774.652	1181.2
2778.127	1164.2
2781.598	1162.2
2785.067	1166.2
2788.532	1154.2
2791.995	1164.2
2795.455	1169.2
2798.911	1162.2
2802.365	1148.2
2805.816	1148.2
2809.264	1149.2
2812.709	1134.2
2816.151	1155.2
2819.59	1149.2
2823.026	1146.2
2826.46	1140.2
2829.89	1151.2
2833.318	1150.2
2836.742	1139.2
2840.164	1153.2
2843.583	1173.2
2846.999	1156.2
2850.412	1178.2
2853.822	1211.2
2857.229	1205.2
2860.634	1237.2
2864.035	1247.2
2867.434	1266.2
2870.83	1277.2
2874.223	1300.2
2877.613	1335.2
2881	1344.2
2884.385	1347.2
2887.766	1318.2
2891.145	1334.2
2894.521	1317.2
2897.894	1336.2
2901.264	1328.2
2904.631	1348.2
2907.996	1344.2
2911.358	1320.2
2914.717	1319.2
2918.073	1354.2
2921.426	1365.2
2924.777	1373.2
2928.124	1396.2
2931.469	1424.2
2934.811	1453.2
2938.15	1466.2
2941.487	1455.2
2944.821	1471.2
2948.152	1479.2
2951.48	1471.2
2954.805	1443.2
2958.128	1433.2
2961.447	1438.2
2964.765	1449.2
2968.079	1426.2
2971.39	1454.2
2974.699	1469.2
2978.005	1477.2
2981.308	1511.2
2984.609	1539.2
2987.907	1564.2
2991.202	1576.2
2994.494	1620.2
2997.784	1651.2
3001.07	1669.2
3004.355	1708.2
3007.636	1738.2
3010.915	1748.2
3014.191	1770.2
3017.464	1764.2
3020.734	1805.2
3024.002	1778.2
3027.267	1813.2
3030.53	1798.2
3033.789	1799.2
3037.046	1852.2
3040.301	1891.2
3043.552	1913.2
3046.801	1936.2
3050.048	1987.2
3053.291	2043.2
3056.532	2091.2
3059.771	2134.2
3063.006	2235.2
3066.239	2271.2
3069.469	2333.2
3072.697	2377.2
3075.922	2456.2
3079.144	2510.2
3082.364	2554.2
3085.581	2618.2
3088.795	2691.2
3092.007	2722.2
3095.216	2771.2
3098.423	2847.2
3101.627	2896.2
3104.828	2950.2
3108.026	3008.2
3111.222	3097.2
3114.416	3139.2
3117.607	3237.2
3120.795	3309.2
3123.98	3405.2
3127.163	3439.2
3130.344	3568.2
3133.521	3612.2
3136.696	3688.2
3139.869	3787.2
3143.039	3852.2
3146.206	3867.2
3149.371	3911.2
3152.533	3955.2
3155.693	4014.2
3158.85	4032.2
3162.005	4039.2
3165.157	4064.2
3168.306	4072.2
3171.453	4080.2
3174.597	4069.2
3177.739	4085.2
3180.878	4122.2
3184.014	4117.2
3187.149	4080.2
3190.28	4110.2
3193.409	4086.2
3196.536	4145.2
3199.659	4147.2
3202.781	4122.2
3205.9	4115.2
3209.016	4124.2
3212.13	4119.2
3215.241	4103.2
3218.35	4043.2
3221.456	4034.2
3224.56	3965.2
3227.661	3923.2
3230.76	3875.2
3233.856	3839.2
3236.95	3806.2
3240.041	3799.2
3243.13	3769.2
3246.216	3729.2
3249.3	3711.2
3252.382	3712.2
3255.46	3703.2
3258.537	3683.2
3261.611	3713.2
3264.682	3672.2
3267.751	3650.2
3270.818	3676.2
3273.882	3692.2
3276.943	3623.2
3280.002	3607.2
3283.059	3594.2
3286.113	3543.2
3289.165	3496.2
3292.214	3441.2
3295.261	3373.2
3298.306	3315.2
3301.348	3264.2
3304.387	3180.2
3307.425	3164.2
3310.459	3111.2
3313.492	3069.2
3316.521	3045.2
3319.549	2997.2
3322.574	2961.2
3325.597	2954.2
3328.617	2912.2
3331.635	2881.2
3334.65	2885.2
3337.663	2858.2
3340.674	2840.2
3343.682	2839.2
3346.688	2816.2
3349.691	2798.2
3352.692	2779.2
3355.691	2777.2
3358.687	2747.2
3361.681	2714.2
3364.673	2694.2
3367.662	2620.2
3370.649	2617.2
3373.633	2563.2
3376.615	2512.2
3379.595	2509.2
3382.572	2466.2
3385.547	2414.2
3388.52	2396.2
3391.49	2357.2
3394.458	2314.2
3397.424	2287.2
3400.387	2276.2
3403.348	2214.2
3406.307	2212.2
3409.263	2171.2
3412.217	2150.2
3415.168	2140.2
3418.118	2081.2
3421.065	2057.2
3424.009	2037.2
3426.951	1988.2
3429.891	1984.2
3432.829	1943.2
3435.764	1883.2
3438.697	1841.2
3441.628	1785.2
3444.557	1760.2
3447.483	1667.2
3450.407	1637.2
3453.328	1564.2
3456.247	1540.2
3459.164	1470.2
3462.079	1420.2
3464.991	1379.2
3467.902	1340.2
3470.809	1269.2
3473.715	1216.2
3476.618	1181.2
3479.519	1144.2
3482.418	1102.2
3485.315	1064.2
3488.209	1029.2
3491.101	1007.2
3493.99	952.2
3496.878	918.2
3499.763	897.2
3502.646	845.2
3505.527	812.2
3508.405	794.2
3511.281	726.2
3514.155	697.2
3517.027	671.2
3519.897	626.2
3522.764	561.2
3525.629	538.2
3528.492	502.2
3531.352	443.2
3534.211	414.2
3537.067	353.2
3539.921	329.2
3542.773	294.2
3545.622	262.2
3548.469	245.2
3551.315	216.2
3554.157	193.2
3556.998	152.2
3559.837	126.2
3562.673	96.2
3565.507	77.2
3568.339	53.2
3571.169	28.2
3573.996	24.2
3576.822	5.2
3579.645	-28.8
3582.466	-54.8
3585.285	-71.8
3588.101	-88.8
3590.916	-110.8
3593.728	-132.8
3596.538	-147.8
3599.346	-170.8
3602.152	-183.8
3604.956	-198.8
3607.757	-223.8
3610.556	-246.8
3613.354	-247.8
3616.149	-261.8
3618.942	-272.8
3621.732	-286.8
3624.521	-294.8
3627.307	-303.8
3630.092	-323.8
3632.874	-331.8
3635.654	-335.8
3638.432	-354.8
3641.208	-358.8
3643.982	-364.8
3646.753	-378.8
3649.523	-384.8
3652.29	-395.8
3655.055	-403.8
3657.818	-416.8
3660.579	-430.8
3663.338	-449.8
3666.095	-454.8
3668.849	-460.8
3671.602	-463.8
3674.352	-473.8
3677.101	-477.8
3679.847	-485.8
3682.591	-495.8
3685.333	-495.8
3688.073	-501.8
3690.811	-517.8
3693.547	-514.8
3696.281	-523.8
3699.013	-522.8
3701.742	-534.8
3704.47	-537.8
3707.195	-548.8
3709.919	-546.8
3712.64	-560.8
3715.359	-551.8
3718.076	-553.8
3720.792	-554.8
3723.505	-556.8
3726.216	-572.8
3728.925	-564.8
3731.632	-571.8
3734.336	-571.8
3737.039	-581.8
3739.74	-575.8
3742.439	-582.8
3745.136	-586.8
3747.83	-595.8
3750.523	-587.8
3753.213	-578.8
3755.902	-592.8
3758.589	-599.8
3761.273	-600.8
3763.956	-605.8
3766.636	-602.8
3769.315	-605.8
3771.991	-596.8
3774.665	-606.8
3777.338	-604.8
3780.008	-613.8
3782.677	-611.8
3785.343	-604.8
3788.007	-613.8
3790.67	-619.8
3793.33	-621.8
3795.989	-616.8
3798.645	-620.8
3801.299	-624.8
3803.952	-628.8
3806.602	-629.8
3809.251	-632.8
3811.897	-629.8
3814.542	-625.8
3817.184	-627.8
3819.825	-628.8
3822.463	-617.8
3825.1	-631.8
3827.735	-623.8
3830.367	-631.8
3832.998	-632.8
3835.627	-639.8
3838.253	-636.8
3840.878	-639.8
3843.501	-636.8
3846.122	-633.8
3848.741	-634.8
3851.358	-642.8
3853.973	-636.8
3856.586	-636.8
3859.197	-639.8
3861.806	-649.8
3864.414	-639.8
3867.019	-632.8
3869.622	-640.8
3872.224	-632.8
3874.823	-615.8
3877.421	-605.8
3880.016	-587.8
3882.61	-574.8
3885.202	-559.8
3887.792	-565.8
3890.38	-598.8
3892.966	-626.8
3895.55	-638.8
3898.132	-651.8
3900.713	-652.8
3903.291	-652.8
3905.868	-649.8
3908.442	-653.8
3911.015	-653.8
3913.586	-646.8
3916.155	-648.8
3918.722	-656.8
3921.287	-648.8
3923.85	-652.8
3926.411	-650.8
3928.971	-660.8
3931.528	-659.8
3934.084	-656.8
3936.638	-658.8
3939.19	-659.8
3941.74	-651.8
3944.288	-659.8
3946.834	-652.8
3949.378	-656.8
3951.921	-651.8
3954.462	-656.8
3957	-651.8
3959.537	-655.8
3962.072	-652.8
3964.606	-658.8
3967.137	-655.8
3969.667	-660.8
3972.194	-653.8
3974.72	-657.8
3977.244	-643.8
3979.766	-646.8
3982.286	-646.8
3984.805	-643.8
3987.321	-643.8
3989.836	-639.8
3992.349	-636.8
3994.86	-641.8
3997.369	-647.8
3999.877	-637.8
4002.382	-636.8
4004.886	-643.8
4007.388	-637.8
4009.888	-640.8
4012.386	-643.8
4014.883	-638.8
4017.377	-642.8
4019.87	-636.8
4022.361	-641.8
4024.85	-640.8
4027.338	-638.8
4029.823	-645.8
4032.307	-639.8
4034.789	-639.8
4037.269	-638.8
4039.747	-642.8
4042.224	-644.8
4044.699	-652.8
4047.172	-644.8
4049.643	-644.8
4052.112	-655.8
4054.58	-652.8
4057.046	-649.8
4059.51	-647.8
4061.972	-647.8
4064.432	-648.8
4066.891	-647.8
4069.348	-634.8
4071.803	-640.8
4074.256	-646.8
4076.708	-640.8
4079.158	-639.8
4081.606	-645.8
4084.052	-653.8
4086.497	-644.8
4088.939	-639.8
4091.38	-643.8
4093.819	-641.8
4096.257	-678.8
4098.693	-679.8
4101.127	-686.8
4103.559	-682.8
4105.989	-387.8
4108.418	-364.8
4110.845	-338.8
4113.27	-309.8
4115.694	-276.8
4118.115	-218.8
4120.535	-644.8
4122.954	-646.8
4125.37	-638.8
4127.785	-643.8
4130.198	-645.8
4132.609	-646.8
4135.019	-681.8
4137.427	-682.8
4139.833	-681.8
4142.237	-681.8
