Data from 2018-2-14_conc=5_n=5_RamanShift_04.txt Node
Date: Wed Feb 14 14:19:25 IST 2018
User: aro
Spectrometer: QEPB0276
Trigger mode: 0
Integration Time (sec): 3.000000E1
Scans to average: 1
Electric dark correction enabled: true
Nonlinearity correction enabled: false
Boxcar width: 0
XAxis mode: Raman Shifts
Number of Pixels in Spectrum: 1044
>>>>>Begin Spectral Data<<<<<
160.701	-125.2
166.742	45.8
172.777	534.8
178.805	2054.8
184.826	5611.8
190.841	11740.8
196.849	18877.8
202.85	23926.8
208.845	25617.8
214.833	25416.8
220.815	24971.8
226.789	24864.8
232.758	24722.8
238.719	24558.8
244.674	24204.8
250.623	23846.8
256.565	23425.8
262.5	22868.8
268.429	22518.8
274.351	22161.8
280.267	21917.8
286.176	21644.8
292.079	21472.8
297.975	21315.8
303.865	21157.8
309.748	21009.8
315.625	20904.8
321.495	20764.8
327.359	20681.8
333.217	20655.8
339.068	20619.8
344.912	20679.8
350.751	20665.8
356.583	20611.8
362.408	20584.8
368.227	20615.8
374.04	20653.8
379.847	20639.8
385.647	20760.8
391.44	20868.8
397.228	20880.8
403.009	20977.8
408.784	21078.8
414.553	21124.8
420.315	21194.8
426.071	21164.8
431.821	21154.8
437.565	21162.8
443.302	21106.8
449.033	21063.8
454.758	21003.8
460.477	20986.8
466.189	20911.8
471.896	20890.8
477.596	20820.8
483.29	20797.8
488.978	20697.8
494.66	20650.8
500.335	20496.8
506.005	20280.8
511.668	19981.8
517.325	19699.8
522.977	19595.8
528.622	19316.8
534.261	19260.8
539.894	19217.8
545.521	19098.8
551.141	18966.8
556.756	18928.8
562.365	18897.8
567.968	18777.8
573.565	18745.8
579.155	18592.8
584.74	18543.8
590.319	18431.8
595.892	18408.8
601.459	18381.8
607.02	18271.8
612.575	18152.8
618.124	18032.8
623.667	17964.8
629.204	17821.8
634.735	17767.8
640.261	17695.8
645.781	17554.8
651.294	17532.8
656.802	17516.8
662.304	17580.8
667.8	17446.8
673.29	17439.8
678.775	17437.8
684.254	17376.8
689.726	17313.8
695.193	17215.8
700.655	17151.8
706.11	17062.8
711.56	16940.8
717.004	16907.8
722.442	16814.8
727.874	16733.8
733.301	16704.8
738.722	16583.8
744.137	16577.8
749.547	16570.8
754.951	16559.8
760.349	16589.8
765.741	16673.8
771.128	16596.8
776.509	16627.8
781.885	16624.8
787.254	16553.8
792.618	16460.8
797.977	16448.8
803.33	16291.8
808.677	16109.8
814.019	16166.8
819.355	15981.8
824.686	15962.8
830.011	15878.8
835.33	15909.8
840.644	15886.8
845.952	15863.8
851.255	15916.8
856.552	15950.8
861.844	15873.8
867.13	15800.8
872.41	15771.8
877.686	15675.8
882.955	15604.8
888.219	15453.8
893.478	15279.8
898.731	15076.8
903.979	14931.8
909.221	14829.8
914.458	14766.8
919.69	14737.8
924.916	14770.8
930.136	14827.8
935.351	14880.8
940.561	14887.8
945.766	14835.8
950.965	14762.8
956.158	14673.8
961.347	14492.8
966.529	14293.8
971.707	14119.8
976.879	13900.8
982.046	13822.8
987.208	13838.8
992.364	13747.8
997.515	13887.8
1002.66	13953.8
1007.801	14102.8
1012.936	14266.8
1018.066	14202.8
1023.19	14299.8
1028.309	14226.8
1033.423	14161.8
1038.532	14091.8
1043.636	13980.8
1048.734	13841.8
1053.827	13621.8
1058.915	13497.8
1063.998	13423.8
1069.075	13351.8
1074.147	13398.8
1079.214	13444.8
1084.276	13508.8
1089.333	13575.8
1094.385	13622.8
1099.431	13640.8
1104.472	13654.8
1109.509	13557.8
1114.54	13367.8
1119.565	13236.8
1124.586	13054.8
1129.602	12912.8
1134.613	12760.8
1139.618	12729.8
1144.619	12723.8
1149.614	12692.8
1154.604	12723.8
1159.589	12778.8
1164.57	12776.8
1169.545	12813.8
1174.515	12801.8
1179.48	12796.8
1184.44	12639.8
1189.395	12547.8
1194.345	12459.8
1199.29	12400.8
1204.23	12370.8
1209.165	12439.8
1214.095	12511.8
1219.021	12573.8
1223.941	12599.8
1228.856	12687.8
1233.766	12652.8
1238.672	12730.8
1243.572	12746.8
1248.467	12568.8
1253.358	12448.8
1258.244	12297.8
1263.124	12138.8
1268	11905.8
1272.871	11802.8
1277.737	11694.8
1282.599	11650.8
1287.455	11620.8
1292.306	11617.8
1297.153	11660.8
1301.995	11726.8
1306.832	11747.8
1311.664	11712.8
1316.491	11726.8
1321.314	11629.8
1326.132	11457.8
1330.945	11219.8
1335.753	10931.8
1340.556	10656.8
1345.354	10431.8
1350.148	10288.8
1354.937	10203.8
1359.722	10152.8
1364.501	10178.8
1369.276	10232.8
1374.046	10316.8
1378.811	10455.8
1383.572	10535.8
1388.327	10543.8
1393.079	10559.8
1397.825	10475.8
1402.567	10295.8
1407.304	10159.8
1412.036	10096.8
1416.764	10047.8
1421.487	10024.8
1426.205	9912.8
1430.919	9906.8
1435.628	9911.8
1440.333	9943.8
1445.032	9881.8
1449.727	9959.8
1454.418	9968.8
1459.104	9827.8
1463.785	9661.8
1468.462	9462.8
1473.134	9289.8
1477.802	9038.8
1482.465	8849.8
1487.123	8733.8
1491.777	8714.8
1496.426	8743.8
1501.071	8786.8
1505.711	8896.8
1510.347	9033.8
1514.978	9174.8
1519.604	9323.8
1524.226	9437.8
1528.844	9441.8
1533.457	9377.8
1538.065	9371.8
1542.669	9304.8
1547.269	9252.8
1551.864	9229.8
1556.454	9190.8
1561.041	9208.8
1565.622	9244.8
1570.199	9184.8
1574.772	9268.8
1579.34	9311.8
1583.904	9389.8
1588.464	9432.8
1593.019	9390.8
1597.569	9395.8
1602.115	9313.8
1606.657	9266.8
1611.195	9207.8
1615.728	9119.8
1620.256	9102.8
1624.78	9094.8
1629.3	9107.8
1633.816	9113.8
1638.327	9154.8
1642.834	9171.8
1647.336	9239.8
1651.834	9222.8
1656.328	9216.8
1660.817	9113.8
1665.302	9014.8
1669.783	8867.8
1674.259	8664.8
1678.732	8398.8
1683.199	8090.8
1687.663	7824.8
1692.122	7608.8
1696.577	7440.8
1701.028	7380.8
1705.474	7367.8
1709.917	7459.8
1714.355	7465.8
1718.788	7443.8
1723.218	7356.8
1727.643	7215.8
1732.064	7065.8
1736.481	6960.8
1740.893	6751.8
1745.301	6644.8
1749.705	6435.8
1754.105	6266.8
1758.501	6049.8
1762.893	5912.8
1767.28	5744.8
1771.663	5610.8
1776.042	5523.8
1780.417	5492.8
1784.787	5436.8
1789.154	5471.8
1793.516	5531.8
1797.874	5627.8
1802.228	5691.8
1806.578	5765.8
1810.924	5749.8
1815.266	5689.8
1819.603	5672.8
1823.937	5568.8
1828.266	5500.8
1832.591	5434.8
1836.913	5369.8
1841.23	5322.8
1845.543	5254.8
1849.852	5224.8
1854.156	5217.8
1858.457	5207.8
1862.754	5217.8
1867.047	5199.8
1871.335	5215.8
1875.62	5191.8
1879.9	5146.8
1884.177	5116.8
1888.449	5097.8
1892.718	4998.8
1896.982	4926.8
1901.243	4916.8
1905.499	4849.8
1909.752	4829.8
1914	4837.8
1918.245	4832.8
1922.485	4838.8
1926.722	4903.8
1930.954	4943.8
1935.183	5001.8
1939.408	5013.8
1943.628	5080.8
1947.845	5095.8
1952.058	5046.8
1956.267	5008.8
1960.472	4986.8
1964.673	4882.8
1968.87	4838.8
1973.063	4751.8
1977.252	4684.8
1981.438	4629.8
1985.619	4604.8
1989.797	4547.8
1993.971	4542.8
1998.14	4518.8
2002.306	4514.8
2006.469	4504.8
2010.627	4484.8
2014.781	4456.8
2018.932	4423.8
2023.078	4400.8
2027.221	4296.8
2031.36	4228.8
2035.495	4145.8
2039.627	4084.8
2043.754	4057.8
2047.878	4031.8
2051.998	3979.8
2056.114	3968.8
2060.226	3951.8
2064.334	3939.8
2068.439	3942.8
2072.54	3955.8
2076.637	4036.8
2080.73	4029.8
2084.82	4037.8
2088.906	4046.8
2092.988	4064.8
2097.066	4010.8
2101.14	4008.8
2105.211	3969.8
2109.278	3963.8
2113.342	3938.8
2117.401	3895.8
2121.457	3892.8
2125.509	3886.8
2129.558	3838.8
2133.602	3809.8
2137.643	3792.8
2141.681	3801.8
2145.714	3773.8
2149.744	3755.8
2153.77	3730.8
2157.793	3690.8
2161.812	3656.8
2165.827	3551.8
2169.838	3550.8
2173.846	3503.8
2177.851	3413.8
2181.851	3375.8
2185.848	3328.8
2189.841	3291.8
2193.831	3252.8
2197.817	3215.8
2201.799	3215.8
2205.778	3222.8
2209.753	3195.8
2213.725	3182.8
2217.693	3172.8
2221.657	3161.8
2225.618	3147.8
2229.575	3145.8
2233.529	3106.8
2237.479	3105.8
2241.425	3032.8
2245.368	2999.8
2249.307	2951.8
2253.243	2925.8
2257.175	2881.8
2261.104	2827.8
2265.029	2801.8
2268.95	2767.8
2272.868	2737.8
2276.783	2721.8
2280.694	2698.8
2284.601	2647.8
2288.505	2649.8
2292.405	2613.8
2296.302	2595.8
2300.195	2554.8
2304.085	2517.8
2307.971	2509.8
2311.854	2481.8
2315.734	2437.8
2319.609	2390.8
2323.482	2350.8
2327.351	2329.8
2331.216	2327.8
2335.078	2320.8
2338.937	2302.8
2342.792	2289.8
2346.643	2267.8
2350.492	2277.8
2354.336	2291.8
2358.178	2273.8
2362.015	2307.8
2365.85	2307.8
2369.681	2282.8
2373.508	2300.8
2377.333	2320.8
2381.153	2284.8
2384.971	2268.8
2388.785	2283.8
2392.595	2225.8
2396.402	2221.8
2400.206	2206.8
2404.007	2184.8
2407.804	2164.8
2411.597	2157.8
2415.388	2160.8
2419.174	2121.8
2422.958	2109.8
2426.738	2092.8
2430.515	2075.8
2434.289	2067.8
2438.059	2051.8
2441.825	2022.8
2445.589	2009.8
2449.349	1974.8
2453.106	1961.8
2456.859	1932.8
2460.61	1918.8
2464.356	1880.8
2468.1	1866.8
2471.84	1840.8
2475.577	1811.8
2479.311	1805.8
2483.041	1807.8
2486.768	1788.8
2490.492	1772.8
2494.213	1791.8
2497.93	1756.8
2501.644	1761.8
2505.355	1739.8
2509.062	1715.8
2512.766	1728.8
2516.467	1714.8
2520.165	1699.8
2523.859	1693.8
2527.551	1675.8
2531.239	1652.8
2534.923	1641.8
2538.605	1635.8
2542.283	1627.8
2545.958	1626.8
2549.63	1621.8
2553.299	1609.8
2556.964	1617.8
2560.626	1597.8
2564.285	1588.8
2567.941	1594.8
2571.594	1575.8
2575.243	1572.8
2578.89	1577.8
2582.533	1544.8
2586.173	1537.8
2589.809	1520.8
2593.443	1501.8
2597.073	1492.8
2600.701	1464.8
2604.325	1479.8
2607.946	1446.8
2611.564	1430.8
2615.178	1439.8
2618.79	1412.8
2622.398	1415.8
2626.004	1409.8
2629.606	1378.8
2633.205	1362.8
2636.801	1343.8
2640.394	1333.8
2643.983	1297.8
2647.57	1280.8
2651.153	1253.8
2654.734	1232.8
2658.311	1197.8
2661.885	1219.8
2665.456	1179.8
2669.025	1175.8
2672.589	1150.8
2676.151	1144.8
2679.71	1123.8
2683.266	1119.8
2686.819	1088.8
2690.368	1053.8
2693.915	1030.8
2697.458	1017.8
2700.999	995.8
2704.536	964.8
2708.071	931.8
2711.602	926.8
2715.13	891.8
2718.656	891.8
2722.178	876.8
2725.697	863.8
2729.214	847.8
2732.727	842.8
2736.237	826.8
2739.744	816.8
2743.249	826.8
2746.75	827.8
2750.248	820.8
2753.743	825.8
2757.236	854.8
2760.725	857.8
2764.211	866.8
2767.695	857.8
2771.175	859.8
2774.652	857.8
2778.127	839.8
2781.598	848.8
2785.067	846.8
2788.532	838.8
2791.995	821.8
2795.455	834.8
2798.911	831.8
2802.365	826.8
2805.816	840.8
2809.264	841.8
2812.709	837.8
2816.151	834.8
2819.59	848.8
2823.026	830.8
2826.46	846.8
2829.89	846.8
2833.318	857.8
2836.742	861.8
2840.164	870.8
2843.583	857.8
2846.999	862.8
2850.412	880.8
2853.822	902.8
2857.229	903.8
2860.634	940.8
2864.035	949.8
2867.434	953.8
2870.83	983.8
2874.223	999.8
2877.613	1011.8
2881	1026.8
2884.385	1030.8
2887.766	1041.8
2891.145	1021.8
2894.521	1020.8
2897.894	1036.8
2901.264	1033.8
2904.631	1030.8
2907.996	1037.8
2911.358	1041.8
2914.717	1043.8
2918.073	1049.8
2921.426	1066.8
2924.777	1080.8
2928.124	1095.8
2931.469	1129.8
2934.811	1139.8
2938.15	1145.8
2941.487	1167.8
2944.821	1167.8
2948.152	1164.8
2951.48	1164.8
2954.805	1131.8
2958.128	1133.8
2961.447	1120.8
2964.765	1141.8
2968.079	1117.8
2971.39	1117.8
2974.699	1144.8
2978.005	1163.8
2981.308	1195.8
2984.609	1199.8
2987.907	1226.8
2991.202	1248.8
2994.494	1274.8
2997.784	1293.8
3001.07	1325.8
3004.355	1351.8
3007.636	1373.8
3010.915	1385.8
3014.191	1390.8
3017.464	1406.8
3020.734	1427.8
3024.002	1425.8
3027.267	1463.8
3030.53	1456.8
3033.789	1463.8
3037.046	1495.8
3040.301	1520.8
3043.552	1554.8
3046.801	1573.8
3050.048	1624.8
3053.291	1682.8
3056.532	1713.8
3059.771	1752.8
3063.006	1824.8
3066.239	1887.8
3069.469	1924.8
3072.697	1976.8
3075.922	2023.8
3079.144	2075.8
3082.364	2130.8
3085.581	2181.8
3088.795	2215.8
3092.007	2282.8
3095.216	2325.8
3098.423	2360.8
3101.627	2431.8
3104.828	2480.8
3108.026	2531.8
3111.222	2553.8
3114.416	2645.8
3117.607	2683.8
3120.795	2754.8
3123.98	2835.8
3127.163	2916.8
3130.344	2983.8
3133.521	3003.8
3136.696	3142.8
3139.869	3192.8
3143.039	3241.8
3146.206	3283.8
3149.371	3326.8
3152.533	3347.8
3155.693	3381.8
3158.85	3385.8
3162.005	3429.8
3165.157	3450.8
3168.306	3447.8
3171.453	3448.8
3174.597	3436.8
3177.739	3478.8
3180.878	3468.8
3184.014	3464.8
3187.149	3473.8
3190.28	3462.8
3193.409	3470.8
3196.536	3482.8
3199.659	3484.8
3202.781	3482.8
3205.9	3509.8
3209.016	3487.8
3212.13	3477.8
3215.241	3440.8
3218.35	3421.8
3221.456	3376.8
3224.56	3321.8
3227.661	3291.8
3230.76	3259.8
3233.856	3231.8
3236.95	3173.8
3240.041	3179.8
3243.13	3126.8
3246.216	3117.8
3249.3	3092.8
3252.382	3055.8
3255.46	3092.8
3258.537	3016.8
3261.611	3054.8
3264.682	3043.8
3267.751	3032.8
3270.818	3016.8
3273.882	3068.8
3276.943	3017.8
3280.002	3006.8
3283.059	2968.8
3286.113	2930.8
3289.165	2906.8
3292.214	2872.8
3295.261	2817.8
3298.306	2776.8
3301.348	2740.8
3304.387	2696.8
3307.425	2631.8
3310.459	2606.8
3313.492	2567.8
3316.521	2540.8
3319.549	2515.8
3322.574	2490.8
3325.597	2446.8
3328.617	2464.8
3331.635	2415.8
3334.65	2419.8
3337.663	2424.8
3340.674	2394.8
3343.682	2387.8
3346.688	2387.8
3349.691	2374.8
3352.692	2369.8
3355.691	2340.8
3358.687	2328.8
3361.681	2291.8
3364.673	2275.8
3367.662	2244.8
3370.649	2208.8
3373.633	2159.8
3376.615	2168.8
3379.595	2110.8
3382.572	2076.8
3385.547	2046.8
3388.52	2026.8
3391.49	1986.8
3394.458	1948.8
3397.424	1927.8
3400.387	1884.8
3403.348	1891.8
3406.307	1861.8
3409.263	1824.8
3412.217	1823.8
3415.168	1782.8
3418.118	1780.8
3421.065	1734.8
3424.009	1727.8
3426.951	1681.8
3429.891	1682.8
3432.829	1625.8
3435.764	1594.8
3438.697	1543.8
3441.628	1487.8
3444.557	1457.8
3447.483	1389.8
3450.407	1353.8
3453.328	1305.8
3456.247	1263.8
3459.164	1234.8
3462.079	1169.8
3464.991	1124.8
3467.902	1081.8
3470.809	1045.8
3473.715	1002.8
3476.618	972.8
3479.519	927.8
3482.418	895.8
3485.315	862.8
3488.209	830.8
3491.101	788.8
3493.99	768.8
3496.878	721.8
3499.763	704.8
3502.646	693.8
3505.527	663.8
3508.405	598.8
3511.281	575.8
3514.155	532.8
3517.027	501.8
3519.897	457.8
3522.764	426.8
3525.629	387.8
3528.492	365.8
3531.352	329.8
3534.211	298.8
3537.067	264.8
3539.921	230.8
3542.773	190.8
3545.622	176.8
3548.469	137.8
3551.315	112.8
3554.157	95.8
3556.998	75.8
3559.837	41.8
3562.673	32.8
3565.507	-8.2
3568.339	-3.2
3571.169	-26.2
3573.996	-35.2
3576.822	-56.2
3579.645	-76.2
3582.466	-91.2
3585.285	-112.2
3588.101	-125.2
3590.916	-138.2
3593.728	-167.2
3596.538	-174.2
3599.346	-197.2
3602.152	-199.2
3604.956	-212.2
3607.757	-236.2
3610.556	-249.2
3613.354	-261.2
3616.149	-278.2
3618.942	-288.2
3621.732	-304.2
3624.521	-310.2
3627.307	-314.2
3630.092	-335.2
3632.874	-333.2
3635.654	-336.2
3638.432	-342.2
3641.208	-356.2
3643.982	-368.2
3646.753	-366.2
3649.523	-379.2
3652.29	-384.2
3655.055	-389.2
3657.818	-405.2
3660.579	-414.2
3663.338	-418.2
3666.095	-430.2
3668.849	-442.2
3671.602	-438.2
3674.352	-453.2
3677.101	-455.2
3679.847	-470.2
3682.591	-467.2
3685.333	-476.2
3688.073	-478.2
3690.811	-484.2
3693.547	-491.2
3696.281	-489.2
3699.013	-491.2
3701.742	-504.2
3704.47	-507.2
3707.195	-520.2
3709.919	-511.2
3712.64	-521.2
3715.359	-521.2
3718.076	-521.2
3720.792	-530.2
3723.505	-523.2
3726.216	-528.2
3728.925	-523.2
3731.632	-541.2
3734.336	-534.2
3737.039	-540.2
3739.74	-539.2
3742.439	-548.2
3745.136	-548.2
3747.83	-552.2
3750.523	-544.2
3753.213	-547.2
3755.902	-555.2
3758.589	-559.2
3761.273	-560.2
3763.956	-561.2
3766.636	-565.2
3769.315	-568.2
3771.991	-563.2
3774.665	-568.2
3777.338	-568.2
3780.008	-570.2
3782.677	-571.2
3785.343	-568.2
3788.007	-574.2
3790.67	-572.2
3793.33	-575.2
3795.989	-577.2
3798.645	-575.2
3801.299	-575.2
3803.952	-577.2
3806.602	-590.2
3809.251	-584.2
3811.897	-582.2
3814.542	-583.2
3817.184	-581.2
3819.825	-580.2
3822.463	-582.2
3825.1	-590.2
3827.735	-584.2
3830.367	-587.2
3832.998	-585.2
3835.627	-449.2
3838.253	-308.2
3840.878	-580.2
3843.501	-592.2
3846.122	-587.2
3848.741	-592.2
3851.358	-591.2
3853.973	-585.2
3856.586	-592.2
3859.197	-593.2
3861.806	-591.2
3864.414	-593.2
3867.019	-587.2
3869.622	-588.2
3872.224	-584.2
3874.823	-574.2
3877.421	-558.2
3880.016	-538.2
3882.61	-514.2
3885.202	-518.2
3887.792	-530.2
3890.38	-560.2
3892.966	-583.2
3895.55	-592.2
3898.132	-607.2
3900.713	-609.2
3903.291	-602.2
3905.868	-606.2
3908.442	-610.2
3911.015	-606.2
3913.586	-598.2
3916.155	-600.2
3918.722	-610.2
3921.287	-603.2
3923.85	-608.2
3926.411	-606.2
3928.971	-618.2
3931.528	-607.2
3934.084	-609.2
3936.638	-607.2
3939.19	-606.2
3941.74	-608.2
3944.288	-609.2
3946.834	-601.2
3949.378	-607.2
3951.921	-608.2
3954.462	-617.2
3957	-605.2
3959.537	-609.2
3962.072	-610.2
3964.606	-611.2
3967.137	-605.2
3969.667	-613.2
3972.194	-601.2
3974.72	-600.2
3977.244	-601.2
3979.766	-590.2
3982.286	-595.2
3984.805	-597.2
3987.321	-591.2
3989.836	-596.2
3992.349	-590.2
3994.86	-589.2
3997.369	-601.2
3999.877	-590.2
4002.382	-594.2
4004.886	-593.2
4007.388	-590.2
4009.888	-594.2
4012.386	-594.2
4014.883	-593.2
4017.377	-593.2
4019.87	-588.2
4022.361	-595.2
4024.85	-595.2
4027.338	-598.2
4029.823	-596.2
4032.307	-594.2
4034.789	-589.2
4037.269	-589.2
4039.747	-598.2
4042.224	-596.2
4044.699	-596.2
4047.172	-594.2
4049.643	-593.2
4052.112	-598.2
4054.58	-601.2
4057.046	-599.2
4059.51	-592.2
4061.972	-594.2
4064.432	-600.2
4066.891	-598.2
4069.348	-596.2
4071.803	-592.2
4074.256	-595.2
4076.708	-594.2
4079.158	-600.2
4081.606	-597.2
4084.052	-598.2
4086.497	-601.2
4088.939	-589.2
4091.38	-596.2
4093.819	-595.2
4096.257	-625.2
4098.693	-622.2
4101.127	-631.2
4103.559	-625.2
4105.989	-352.2
4108.418	-327.2
4110.845	-309.2
4113.27	-289.2
4115.694	-259.2
4118.115	-218.2
4120.535	-594.2
4122.954	-599.2
4125.37	-587.2
4127.785	-594.2
4130.198	-596.2
4132.609	-597.2
4135.019	-627.2
4137.427	-627.2
4139.833	-629.2
4142.237	-626.2
