Data from 2018-2-14_conc=4_n=6_RamanShift_05.txt Node
Date: Wed Feb 14 13:45:25 IST 2018
User: aro
Spectrometer: QEPB0276
Trigger mode: 0
Integration Time (sec): 3.000000E1
Scans to average: 1
Electric dark correction enabled: true
Nonlinearity correction enabled: false
Boxcar width: 0
XAxis mode: Raman Shifts
Number of Pixels in Spectrum: 1044
>>>>>Begin Spectral Data<<<<<
160.701	-153.6
166.742	51.4
172.777	595.4
178.805	2280.4
184.826	6367.4
190.841	13268.4
196.849	21312.4
202.85	26972.4
208.845	28760.4
214.833	28484.4
220.815	27907.4
226.789	27817.4
232.758	27680.4
238.719	27494.4
244.674	27065.4
250.623	26578.4
256.565	26078.4
262.5	25500.4
268.429	25082.4
274.351	24805.4
280.267	24398.4
286.176	24060.4
292.079	23855.4
297.975	23657.4
303.865	23478.4
309.748	23321.4
315.625	23141.4
321.495	23052.4
327.359	22943.4
333.217	22938.4
339.068	22864.4
344.912	22857.4
350.751	22772.4
356.583	22769.4
362.408	22818.4
368.227	22802.4
374.04	22768.4
379.847	22831.4
385.647	22957.4
391.44	23013.4
397.228	23146.4
403.009	23249.4
408.784	23255.4
414.553	23354.4
420.315	23455.4
426.071	23406.4
431.821	23394.4
437.565	23379.4
443.302	23350.4
449.033	23362.4
454.758	23253.4
460.477	23149.4
466.189	23118.4
471.896	23107.4
477.596	23041.4
483.29	22949.4
488.978	22952.4
494.66	22895.4
500.335	22694.4
506.005	22501.4
511.668	22273.4
517.325	22005.4
522.977	21774.4
528.622	21608.4
534.261	21487.4
539.894	21394.4
545.521	21315.4
551.141	21232.4
556.756	21161.4
562.365	21137.4
567.968	21060.4
573.565	20907.4
579.155	20813.4
584.74	20753.4
590.319	20592.4
595.892	20594.4
601.459	20508.4
607.02	20439.4
612.575	20274.4
618.124	20176.4
623.667	20007.4
629.204	20034.4
634.735	19927.4
640.261	19787.4
645.781	19750.4
651.294	19668.4
656.802	19705.4
662.304	19605.4
667.8	19540.4
673.29	19509.4
678.775	19473.4
684.254	19391.4
689.726	19364.4
695.193	19323.4
700.655	19259.4
706.11	19129.4
711.56	19052.4
717.004	18959.4
722.442	18869.4
727.874	18848.4
733.301	18746.4
738.722	18674.4
744.137	18636.4
749.547	18571.4
754.951	18567.4
760.349	18598.4
765.741	18587.4
771.128	18665.4
776.509	18599.4
781.885	18634.4
787.254	18594.4
792.618	18497.4
797.977	18402.4
803.33	18303.4
808.677	18121.4
814.019	18096.4
819.355	17988.4
824.686	17879.4
830.011	17878.4
835.33	17843.4
840.644	17819.4
845.952	17854.4
851.255	17918.4
856.552	17994.4
861.844	17885.4
867.13	17844.4
872.41	17783.4
877.686	17708.4
882.955	17537.4
888.219	17441.4
893.478	17197.4
898.731	17017.4
903.979	16790.4
909.221	16680.4
914.458	16681.4
919.69	16637.4
924.916	16680.4
930.136	16738.4
935.351	16721.4
940.561	16689.4
945.766	16716.4
950.965	16634.4
956.158	16520.4
961.347	16340.4
966.529	16121.4
971.707	15930.4
976.879	15720.4
982.046	15654.4
987.208	15581.4
992.364	15576.4
997.515	15626.4
1002.66	15740.4
1007.801	15971.4
1012.936	16131.4
1018.066	16088.4
1023.19	16096.4
1028.309	16117.4
1033.423	16058.4
1038.532	15950.4
1043.636	15813.4
1048.734	15609.4
1053.827	15383.4
1058.915	15242.4
1063.998	15142.4
1069.075	15100.4
1074.147	15092.4
1079.214	15124.4
1084.276	15253.4
1089.333	15343.4
1094.385	15375.4
1099.431	15485.4
1104.472	15472.4
1109.509	15316.4
1114.54	15185.4
1119.565	14995.4
1124.586	14803.4
1129.602	14633.4
1134.613	14482.4
1139.618	14414.4
1144.619	14368.4
1149.614	14429.4
1154.604	14408.4
1159.589	14410.4
1164.57	14491.4
1169.545	14529.4
1174.515	14516.4
1179.48	14397.4
1184.44	14347.4
1189.395	14220.4
1194.345	14109.4
1199.29	14058.4
1204.23	14056.4
1209.165	14079.4
1214.095	14203.4
1219.021	14248.4
1223.941	14331.4
1228.856	14438.4
1233.766	14418.4
1238.672	14439.4
1243.572	14379.4
1248.467	14290.4
1253.358	14161.4
1258.244	13938.4
1263.124	13790.4
1268	13469.4
1272.871	13385.4
1277.737	13276.4
1282.599	13197.4
1287.455	13171.4
1292.306	13230.4
1297.153	13200.4
1301.995	13335.4
1306.832	13356.4
1311.664	13371.4
1316.491	13303.4
1321.314	13195.4
1326.132	12985.4
1330.945	12719.4
1335.753	12355.4
1340.556	12066.4
1345.354	11815.4
1350.148	11607.4
1354.937	11581.4
1359.722	11655.4
1364.501	11674.4
1369.276	11863.4
1374.046	12046.4
1378.811	12266.4
1383.572	12346.4
1388.327	12379.4
1393.079	12362.4
1397.825	12143.4
1402.567	11920.4
1407.304	11763.4
1412.036	11637.4
1416.764	11546.4
1421.487	11463.4
1426.205	11425.4
1430.919	11298.4
1435.628	11355.4
1440.333	11379.4
1445.032	11353.4
1449.727	11397.4
1454.418	11371.4
1459.104	11260.4
1463.785	11058.4
1468.462	10801.4
1473.134	10607.4
1477.802	10387.4
1482.465	10224.4
1487.123	10165.4
1491.777	10144.4
1496.426	10205.4
1501.071	10413.4
1505.711	10547.4
1510.347	10729.4
1514.978	10978.4
1519.604	11111.4
1524.226	11187.4
1528.844	11194.4
1533.457	11187.4
1538.065	11110.4
1542.669	11015.4
1547.269	10944.4
1551.864	10837.4
1556.454	10844.4
1561.041	10720.4
1565.622	10757.4
1570.199	10684.4
1574.772	10826.4
1579.34	10866.4
1583.904	10916.4
1588.464	10980.4
1593.019	10946.4
1597.569	10899.4
1602.115	10833.4
1606.657	10769.4
1611.195	10706.4
1615.728	10611.4
1620.256	10632.4
1624.78	10566.4
1629.3	10612.4
1633.816	10606.4
1638.327	10628.4
1642.834	10758.4
1647.336	10789.4
1651.834	10769.4
1656.328	10791.4
1660.817	10717.4
1665.302	10612.4
1669.783	10455.4
1674.259	10264.4
1678.732	10010.4
1683.199	9563.4
1687.663	9253.4
1692.122	9022.4
1696.577	8953.4
1701.028	8970.4
1705.474	9035.4
1709.917	9154.4
1714.355	9219.4
1718.788	9051.4
1723.218	8934.4
1727.643	8749.4
1732.064	8570.4
1736.481	8391.4
1740.893	8171.4
1745.301	7941.4
1749.705	7737.4
1754.105	7515.4
1758.501	7295.4
1762.893	7088.4
1767.28	6901.4
1771.663	6757.4
1776.042	6637.4
1780.417	6624.4
1784.787	6647.4
1789.154	6766.4
1793.516	6934.4
1797.874	7092.4
1802.228	7209.4
1806.578	7278.4
1810.924	7248.4
1815.266	7129.4
1819.603	7038.4
1823.937	6885.4
1828.266	6753.4
1832.591	6687.4
1836.913	6566.4
1841.23	6527.4
1845.543	6458.4
1849.852	6403.4
1854.156	6397.4
1858.457	6365.4
1862.754	6376.4
1867.047	6388.4
1871.335	6344.4
1875.62	6303.4
1879.9	6336.4
1884.177	6276.4
1888.449	6227.4
1892.718	6199.4
1896.982	6112.4
1901.243	6069.4
1905.499	6034.4
1909.752	5993.4
1914	6069.4
1918.245	6091.4
1922.485	6156.4
1926.722	6210.4
1930.954	6307.4
1935.183	6387.4
1939.408	6452.4
1943.628	6449.4
1947.845	6481.4
1952.058	6437.4
1956.267	6372.4
1960.472	6267.4
1964.673	6176.4
1968.87	6098.4
1973.063	5995.4
1977.252	5914.4
1981.438	5855.4
1985.619	5774.4
1989.797	5738.4
1993.971	5675.4
1998.14	5635.4
2002.306	5614.4
2006.469	5599.4
2010.627	5539.4
2014.781	5503.4
2018.932	5478.4
2023.078	5427.4
2027.221	5322.4
2031.36	5258.4
2035.495	5204.4
2039.627	5102.4
2043.754	5074.4
2047.878	4993.4
2051.998	4967.4
2056.114	4954.4
2060.226	4965.4
2064.334	4972.4
2068.439	4994.4
2072.54	5008.4
2076.637	5096.4
2080.73	5102.4
2084.82	5136.4
2088.906	5173.4
2092.988	5189.4
2097.066	5157.4
2101.14	5123.4
2105.211	5083.4
2109.278	5055.4
2113.342	4981.4
2117.401	4996.4
2121.457	4948.4
2125.509	4918.4
2129.558	4902.4
2133.602	4856.4
2137.643	4828.4
2141.681	4794.4
2145.714	4766.4
2149.744	4683.4
2153.77	4673.4
2157.793	4652.4
2161.812	4555.4
2165.827	4489.4
2169.838	4447.4
2173.846	4374.4
2177.851	4287.4
2181.851	4216.4
2185.848	4155.4
2189.841	4142.4
2193.831	4069.4
2197.817	4030.4
2201.799	4042.4
2205.778	3961.4
2209.753	3986.4
2213.725	4019.4
2217.693	3962.4
2221.657	3954.4
2225.618	3981.4
2229.575	3924.4
2233.529	3908.4
2237.479	3879.4
2241.425	3815.4
2245.368	3720.4
2249.307	3703.4
2253.243	3633.4
2257.175	3596.4
2261.104	3518.4
2265.029	3508.4
2268.95	3466.4
2272.868	3436.4
2276.783	3398.4
2280.694	3348.4
2284.601	3330.4
2288.505	3308.4
2292.405	3272.4
2296.302	3241.4
2300.195	3206.4
2304.085	3162.4
2307.971	3109.4
2311.854	3073.4
2315.734	3021.4
2319.609	2984.4
2323.482	2924.4
2327.351	2891.4
2331.216	2883.4
2335.078	2858.4
2338.937	2823.4
2342.792	2798.4
2346.643	2795.4
2350.492	2781.4
2354.336	2775.4
2358.178	2796.4
2362.015	2824.4
2365.85	2803.4
2369.681	2795.4
2373.508	2807.4
2377.333	2777.4
2381.153	2777.4
2384.971	2774.4
2388.785	2741.4
2392.595	2703.4
2396.402	2701.4
2400.206	2658.4
2404.007	2655.4
2407.804	2614.4
2411.597	2594.4
2415.388	2594.4
2419.174	2577.4
2422.958	2559.4
2426.738	2514.4
2430.515	2507.4
2434.289	2498.4
2438.059	2469.4
2441.825	2446.4
2445.589	2433.4
2449.349	2380.4
2453.106	2367.4
2456.859	2316.4
2460.61	2299.4
2464.356	2287.4
2468.1	2235.4
2471.84	2225.4
2475.577	2221.4
2479.311	2207.4
2483.041	2208.4
2486.768	2168.4
2490.492	2172.4
2494.213	2176.4
2497.93	2148.4
2501.644	2160.4
2505.355	2151.4
2509.062	2134.4
2512.766	2124.4
2516.467	2122.4
2520.165	2090.4
2523.859	2105.4
2527.551	2061.4
2531.239	2064.4
2534.923	2056.4
2538.605	2039.4
2542.283	2027.4
2545.958	2020.4
2549.63	2043.4
2553.299	2043.4
2556.964	2036.4
2560.626	2025.4
2564.285	2005.4
2567.941	2008.4
2571.594	1991.4
2575.243	1996.4
2578.89	1958.4
2582.533	1948.4
2586.173	1939.4
2589.809	1897.4
2593.443	1895.4
2597.073	1878.4
2600.701	1868.4
2604.325	1857.4
2607.946	1827.4
2611.564	1825.4
2615.178	1827.4
2618.79	1797.4
2622.398	1780.4
2626.004	1760.4
2629.606	1723.4
2633.205	1707.4
2636.801	1684.4
2640.394	1650.4
2643.983	1613.4
2647.57	1604.4
2651.153	1566.4
2654.734	1550.4
2658.311	1515.4
2661.885	1514.4
2665.456	1484.4
2669.025	1466.4
2672.589	1464.4
2676.151	1439.4
2679.71	1421.4
2683.266	1390.4
2686.819	1373.4
2690.368	1349.4
2693.915	1313.4
2697.458	1283.4
2700.999	1240.4
2704.536	1220.4
2708.071	1196.4
2711.602	1172.4
2715.13	1146.4
2718.656	1120.4
2722.178	1111.4
2725.697	1093.4
2729.214	1080.4
2732.727	1084.4
2736.237	1073.4
2739.744	1078.4
2743.249	1092.4
2746.75	1104.4
2750.248	1120.4
2753.743	1146.4
2757.236	1149.4
2760.725	1153.4
2764.211	1156.4
2767.695	1147.4
2771.175	1154.4
2774.652	1157.4
2778.127	1133.4
2781.598	1129.4
2785.067	1115.4
2788.532	1130.4
2791.995	1099.4
2795.455	1090.4
2798.911	1099.4
2802.365	1112.4
2805.816	1110.4
2809.264	1115.4
2812.709	1120.4
2816.151	1094.4
2819.59	1096.4
2823.026	1096.4
2826.46	1085.4
2829.89	1100.4
2833.318	1115.4
2836.742	1111.4
2840.164	1113.4
2843.583	1106.4
2846.999	1122.4
2850.412	1137.4
2853.822	1151.4
2857.229	1162.4
2860.634	1199.4
2864.035	1191.4
2867.434	1223.4
2870.83	1254.4
2874.223	1273.4
2877.613	1269.4
2881	1298.4
2884.385	1297.4
2887.766	1291.4
2891.145	1296.4
2894.521	1296.4
2897.894	1294.4
2901.264	1283.4
2904.631	1293.4
2907.996	1289.4
2911.358	1303.4
2914.717	1312.4
2918.073	1330.4
2921.426	1336.4
2924.777	1348.4
2928.124	1371.4
2931.469	1394.4
2934.811	1418.4
2938.15	1458.4
2941.487	1434.4
2944.821	1447.4
2948.152	1459.4
2951.48	1435.4
2954.805	1411.4
2958.128	1412.4
2961.447	1393.4
2964.765	1398.4
2968.079	1404.4
2971.39	1396.4
2974.699	1433.4
2978.005	1424.4
2981.308	1469.4
2984.609	1497.4
2987.907	1548.4
2991.202	1548.4
2994.494	1595.4
2997.784	1601.4
3001.07	1662.4
3004.355	1662.4
3007.636	1705.4
3010.915	1735.4
3014.191	1741.4
3017.464	1726.4
3020.734	1768.4
3024.002	1791.4
3027.267	1781.4
3030.53	1782.4
3033.789	1827.4
3037.046	1840.4
3040.301	1849.4
3043.552	1877.4
3046.801	1940.4
3050.048	1962.4
3053.291	2029.4
3056.532	2080.4
3059.771	2131.4
3063.006	2193.4
3066.239	2251.4
3069.469	2307.4
3072.697	2376.4
3075.922	2416.4
3079.144	2478.4
3082.364	2537.4
3085.581	2592.4
3088.795	2661.4
3092.007	2696.4
3095.216	2752.4
3098.423	2827.4
3101.627	2865.4
3104.828	2950.4
3108.026	3023.4
3111.222	3060.4
3114.416	3135.4
3117.607	3199.4
3120.795	3278.4
3123.98	3363.4
3127.163	3414.4
3130.344	3526.4
3133.521	3614.4
3136.696	3666.4
3139.869	3760.4
3143.039	3809.4
3146.206	3852.4
3149.371	3944.4
3152.533	3975.4
3155.693	3986.4
3158.85	4037.4
3162.005	4064.4
3165.157	4039.4
3168.306	4075.4
3171.453	4053.4
3174.597	4044.4
3177.739	4101.4
3180.878	4109.4
3184.014	4097.4
3187.149	4082.4
3190.28	4092.4
3193.409	4098.4
3196.536	4112.4
3199.659	4138.4
3202.781	4117.4
3205.9	4115.4
3209.016	4133.4
3212.13	4105.4
3215.241	4092.4
3218.35	4021.4
3221.456	4009.4
3224.56	3951.4
3227.661	3878.4
3230.76	3852.4
3233.856	3796.4
3236.95	3767.4
3240.041	3761.4
3243.13	3733.4
3246.216	3710.4
3249.3	3679.4
3252.382	3668.4
3255.46	3659.4
3258.537	3649.4
3261.611	3629.4
3264.682	3669.4
3267.751	3662.4
3270.818	3648.4
3273.882	3655.4
3276.943	3601.4
3280.002	3601.4
3283.059	3585.4
3286.113	3532.4
3289.165	3438.4
3292.214	3416.4
3295.261	3354.4
3298.306	3309.4
3301.348	3235.4
3304.387	3186.4
3307.425	3140.4
3310.459	3134.4
3313.492	3041.4
3316.521	3020.4
3319.549	2977.4
3322.574	2967.4
3325.597	2925.4
3328.617	2901.4
3331.635	2880.4
3334.65	2874.4
3337.663	2870.4
3340.674	2836.4
3343.682	2824.4
3346.688	2830.4
3349.691	2786.4
3352.692	2798.4
3355.691	2766.4
3358.687	2748.4
3361.681	2706.4
3364.673	2673.4
3367.662	2624.4
3370.649	2594.4
3373.633	2542.4
3376.615	2522.4
3379.595	2485.4
3382.572	2450.4
3385.547	2417.4
3388.52	2372.4
3391.49	2321.4
3394.458	2289.4
3397.424	2257.4
3400.387	2230.4
3403.348	2225.4
3406.307	2179.4
3409.263	2172.4
3412.217	2141.4
3415.168	2120.4
3418.118	2081.4
3421.065	2055.4
3424.009	2024.4
3426.951	1990.4
3429.891	1959.4
3432.829	1916.4
3435.764	1883.4
3438.697	1824.4
3441.628	1788.4
3444.557	1726.4
3447.483	1660.4
3450.407	1630.4
3453.328	1561.4
3456.247	1517.4
3459.164	1455.4
3462.079	1407.4
3464.991	1381.4
3467.902	1303.4
3470.809	1266.4
3473.715	1185.4
3476.618	1160.4
3479.519	1113.4
3482.418	1089.4
3485.315	1048.4
3488.209	1021.4
3491.101	986.4
3493.99	928.4
3496.878	902.4
3499.763	864.4
3502.646	835.4
3505.527	816.4
3508.405	768.4
3511.281	720.4
3514.155	673.4
3517.027	637.4
3519.897	592.4
3522.764	554.4
3525.629	513.4
3528.492	471.4
3531.352	424.4
3534.211	396.4
3537.067	350.4
3539.921	320.4
3542.773	289.4
3545.622	240.4
3548.469	205.4
3551.315	185.4
3554.157	155.4
3556.998	122.4
3559.837	101.4
3562.673	89.4
3565.507	56.4
3568.339	42.4
3571.169	18.4
3573.996	-2.6
3576.822	-13.6
3579.645	-44.6
3582.466	-62.6
3585.285	-95.6
3588.101	-106.6
3590.916	-131.6
3593.728	-149.6
3596.538	-163.6
3599.346	-190.6
3602.152	-202.6
3604.956	-215.6
3607.757	-233.6
3610.556	-253.6
3613.354	-266.6
3616.149	-287.6
3618.942	-290.6
3621.732	-292.6
3624.521	-321.6
3627.307	-329.6
3630.092	-335.6
3632.874	-358.6
3635.654	-358.6
3638.432	-359.6
3641.208	-364.6
3643.982	-385.6
3646.753	-385.6
3649.523	-402.6
3652.29	-404.6
3655.055	-418.6
3657.818	-423.6
3660.579	-442.6
3663.338	-456.6
3666.095	-466.6
3668.849	-470.6
3671.602	-485.6
3674.352	-489.6
3677.101	-490.6
3679.847	-507.6
3682.591	-506.6
3685.333	-519.6
3688.073	-521.6
3690.811	-529.6
3693.547	-532.6
3696.281	-532.6
3699.013	-535.6
3701.742	-547.6
3704.47	-550.6
3707.195	-560.6
3709.919	-553.6
3712.64	-564.6
3715.359	-564.6
3718.076	-569.6
3720.792	-568.6
3723.505	-567.6
3726.216	-584.6
3728.925	-582.6
3731.632	-588.6
3734.336	-593.6
3737.039	-595.6
3739.74	-590.6
3742.439	-587.6
3745.136	-600.6
3747.83	-607.6
3750.523	-604.6
3753.213	-593.6
3755.902	-609.6
3758.589	-610.6
3761.273	-609.6
3763.956	-618.6
3766.636	-621.6
3769.315	-619.6
3771.991	-619.6
3774.665	-624.6
3777.338	-620.6
3780.008	-624.6
3782.677	-628.6
3785.343	-621.6
3788.007	-629.6
3790.67	-627.6
3793.33	-632.6
3795.989	-638.6
3798.645	-630.6
3801.299	-630.6
3803.952	-634.6
3806.602	-648.6
3809.251	-646.6
3811.897	-641.6
3814.542	-642.6
3817.184	-640.6
3819.825	-638.6
3822.463	-638.6
3825.1	-645.6
3827.735	-637.6
3830.367	-641.6
3832.998	-650.6
3835.627	-651.6
3838.253	-650.6
3840.878	-654.6
3843.501	-647.6
3846.122	-644.6
3848.741	-647.6
3851.358	-651.6
3853.973	-651.6
3856.586	-654.6
3859.197	-654.6
3861.806	-655.6
3864.414	-655.6
3867.019	-651.6
3869.622	-654.6
3872.224	-652.6
3874.823	-629.6
3877.421	-618.6
3880.016	-611.6
3882.61	-584.6
3885.202	-585.6
3887.792	-594.6
3890.38	-627.6
3892.966	-644.6
3895.55	-654.6
3898.132	-665.6
3900.713	-668.6
3903.291	-661.6
3905.868	-663.6
3908.442	-661.6
3911.015	-668.6
3913.586	-661.6
3916.155	-658.6
3918.722	-667.6
3921.287	-668.6
3923.85	-672.6
3926.411	-671.6
3928.971	-679.6
3931.528	-671.6
3934.084	-675.6
3936.638	-669.6
3939.19	-668.6
3941.74	-671.6
3944.288	-669.6
3946.834	-667.6
3949.378	-666.6
3951.921	-665.6
3954.462	-671.6
3957	-669.6
3959.537	-666.6
3962.072	-665.6
3964.606	-671.6
3967.137	-666.6
3969.667	-670.6
3972.194	-659.6
3974.72	-667.6
3977.244	-658.6
3979.766	-659.6
3982.286	-661.6
3984.805	-660.6
3987.321	-657.6
3989.836	-660.6
3992.349	-648.6
3994.86	-655.6
3997.369	-659.6
3999.877	-650.6
4002.382	-653.6
4004.886	-654.6
4007.388	-648.6
4009.888	-650.6
4012.386	-654.6
4014.883	-652.6
4017.377	-653.6
4019.87	-649.6
4022.361	-653.6
4024.85	-648.6
4027.338	-659.6
4029.823	-656.6
4032.307	-663.6
4034.789	-654.6
4037.269	-651.6
4039.747	-655.6
4042.224	-656.6
4044.699	-660.6
4047.172	-660.6
4049.643	-650.6
4052.112	-661.6
4054.58	-662.6
4057.046	-663.6
4059.51	-665.6
4061.972	-664.6
4064.432	-662.6
4066.891	-659.6
4069.348	-659.6
4071.803	-651.6
4074.256	-655.6
4076.708	-654.6
4079.158	-655.6
4081.606	-655.6
4084.052	-656.6
4086.497	-657.6
4088.939	-653.6
4091.38	-658.6
4093.819	-657.6
4096.257	-695.6
4098.693	-693.6
4101.127	-695.6
4103.559	-691.6
4105.989	-398.6
4108.418	-368.6
4110.845	-352.6
4113.27	-321.6
4115.694	-285.6
4118.115	-230.6
4120.535	-654.6
4122.954	-656.6
4125.37	-651.6
4127.785	-657.6
4130.198	-657.6
4132.609	-655.6
4135.019	-695.6
4137.427	-691.6
4139.833	-695.6
4142.237	-690.6
