Data from 2018-2-14_conc=5_n=1_RamanShift_05.txt Node
Date: Wed Feb 14 14:05:55 IST 2018
User: aro
Spectrometer: QEPB0276
Trigger mode: 0
Integration Time (sec): 3.000000E1
Scans to average: 1
Electric dark correction enabled: true
Nonlinearity correction enabled: false
Boxcar width: 0
XAxis mode: Raman Shifts
Number of Pixels in Spectrum: 1044
>>>>>Begin Spectral Data<<<<<
160.701	-139
166.742	44
172.777	558
178.805	2104
184.826	5796
190.841	12099
196.849	19402
202.85	24511
208.845	26231
214.833	25888
220.815	25509
226.789	25420
232.758	25342
238.719	25165
244.674	24903
250.623	24467
256.565	24041
262.5	23573
268.429	23149
274.351	22873
280.267	22582
286.176	22357
292.079	22143
297.975	22052
303.865	21865
309.748	21744
315.625	21570
321.495	21548
327.359	21476
333.217	21376
339.068	21409
344.912	21358
350.751	21338
356.583	21363
362.408	21318
368.227	21373
374.04	21321
379.847	21385
385.647	21468
391.44	21583
397.228	21594
403.009	21692
408.784	21771
414.553	21852
420.315	21903
426.071	21979
431.821	21917
437.565	21882
443.302	21909
449.033	21796
454.758	21720
460.477	21739
466.189	21696
471.896	21667
477.596	21618
483.29	21559
488.978	21420
494.66	21436
500.335	21326
506.005	21082
511.668	20869
517.325	20600
522.977	20442
528.622	20284
534.261	20126
539.894	20034
545.521	19930
551.141	19853
556.756	19820
562.365	19799
567.968	19711
573.565	19626
579.155	19542
584.74	19443
590.319	19411
595.892	19328
601.459	19268
607.02	19241
612.575	19071
618.124	18988
623.667	18846
629.204	18736
634.735	18656
640.261	18573
645.781	18554
651.294	18520
656.802	18433
662.304	18434
667.8	18361
673.29	18425
678.775	18331
684.254	18264
689.726	18255
695.193	18163
700.655	18130
706.11	18027
711.56	17920
717.004	17808
722.442	17762
727.874	17664
733.301	17627
738.722	17557
744.137	17528
749.547	17520
754.951	17580
760.349	17493
765.741	17501
771.128	17576
776.509	17652
781.885	17604
787.254	17524
792.618	17439
797.977	17404
803.33	17206
808.677	17162
814.019	17027
819.355	16900
824.686	16888
830.011	16883
835.33	16912
840.644	16863
845.952	16841
851.255	16949
856.552	16943
861.844	16949
867.13	16848
872.41	16799
877.686	16700
882.955	16580
888.219	16469
893.478	16297
898.731	16035
903.979	15927
909.221	15828
914.458	15766
919.69	15807
924.916	15796
930.136	15869
935.351	15880
940.561	15904
945.766	15851
950.965	15762
956.158	15659
961.347	15515
966.529	15338
971.707	15117
976.879	14948
982.046	14831
987.208	14799
992.364	14773
997.515	14872
1002.66	14991
1007.801	15162
1012.936	15273
1018.066	15266
1023.19	15306
1028.309	15306
1033.423	15256
1038.532	15176
1043.636	15005
1048.734	14865
1053.827	14651
1058.915	14548
1063.998	14450
1069.075	14377
1074.147	14342
1079.214	14482
1084.276	14527
1089.333	14620
1094.385	14700
1099.431	14686
1104.472	14745
1109.509	14607
1114.54	14489
1119.565	14340
1124.586	14132
1129.602	13971
1134.613	13902
1139.618	13745
1144.619	13804
1149.614	13729
1154.604	13815
1159.589	13853
1164.57	13862
1169.545	13908
1174.515	13865
1179.48	13777
1184.44	13723
1189.395	13601
1194.345	13547
1199.29	13458
1204.23	13426
1209.165	13470
1214.095	13558
1219.021	13628
1223.941	13688
1228.856	13839
1233.766	13822
1238.672	13840
1243.572	13816
1248.467	13676
1253.358	13541
1258.244	13368
1263.124	13184
1268	12992
1272.871	12820
1277.737	12757
1282.599	12648
1287.455	12643
1292.306	12697
1297.153	12779
1301.995	12790
1306.832	12868
1311.664	12917
1316.491	12816
1321.314	12760
1326.132	12563
1330.945	12310
1335.753	11989
1340.556	11691
1345.354	11438
1350.148	11207
1354.937	11113
1359.722	11086
1364.501	11170
1369.276	11283
1374.046	11445
1378.811	11679
1383.572	11818
1388.327	11876
1393.079	11775
1397.825	11637
1402.567	11441
1407.304	11298
1412.036	11228
1416.764	11111
1421.487	11002
1426.205	11008
1430.919	10909
1435.628	10933
1440.333	10927
1445.032	10950
1449.727	11008
1454.418	10927
1459.104	10810
1463.785	10594
1468.462	10407
1473.134	10184
1477.802	10030
1482.465	9802
1487.123	9729
1491.777	9672
1496.426	9707
1501.071	9873
1505.711	10005
1510.347	10233
1514.978	10412
1519.604	10497
1524.226	10674
1528.844	10672
1533.457	10671
1538.065	10619
1542.669	10497
1547.269	10469
1551.864	10391
1556.454	10351
1561.041	10337
1565.622	10315
1570.199	10291
1574.772	10356
1579.34	10390
1583.904	10495
1588.464	10490
1593.019	10426
1597.569	10419
1602.115	10360
1606.657	10280
1611.195	10199
1615.728	10103
1620.256	10038
1624.78	10058
1629.3	10073
1633.816	10060
1638.327	10119
1642.834	10168
1647.336	10156
1651.834	10220
1656.328	10159
1660.817	10135
1665.302	10047
1669.783	9857
1674.259	9658
1678.732	9350
1683.199	9096
1687.663	8770
1692.122	8562
1696.577	8372
1701.028	8357
1705.474	8399
1709.917	8541
1714.355	8655
1718.788	8636
1723.218	8507
1727.643	8378
1732.064	8173
1736.481	8002
1740.893	7810
1745.301	7620
1749.705	7458
1754.105	7238
1758.501	6974
1762.893	6796
1767.28	6653
1771.663	6479
1776.042	6360
1780.417	6292
1784.787	6272
1789.154	6370
1793.516	6477
1797.874	6595
1802.228	6744
1806.578	6782
1810.924	6813
1815.266	6750
1819.603	6668
1823.937	6557
1828.266	6457
1832.591	6366
1836.913	6279
1841.23	6193
1845.543	6176
1849.852	6129
1854.156	6099
1858.457	6087
1862.754	6112
1867.047	6098
1871.335	6059
1875.62	6013
1879.9	6032
1884.177	5992
1888.449	5918
1892.718	5868
1896.982	5809
1901.243	5770
1905.499	5699
1909.752	5650
1914	5687
1918.245	5677
1922.485	5718
1926.722	5828
1930.954	5869
1935.183	5944
1939.408	6010
1943.628	6022
1947.845	6056
1952.058	6054
1956.267	6007
1960.472	5919
1964.673	5857
1968.87	5751
1973.063	5665
1977.252	5565
1981.438	5559
1985.619	5443
1989.797	5408
1993.971	5345
1998.14	5367
2002.306	5292
2006.469	5301
2010.627	5250
2014.781	5238
2018.932	5177
2023.078	5116
2027.221	5041
2031.36	4962
2035.495	4911
2039.627	4817
2043.754	4773
2047.878	4736
2051.998	4667
2056.114	4655
2060.226	4647
2064.334	4659
2068.439	4671
2072.54	4693
2076.637	4713
2080.73	4746
2084.82	4799
2088.906	4804
2092.988	4811
2097.066	4800
2101.14	4790
2105.211	4702
2109.278	4709
2113.342	4684
2117.401	4661
2121.457	4665
2125.509	4601
2129.558	4594
2133.602	4570
2137.643	4518
2141.681	4500
2145.714	4514
2149.744	4453
2153.77	4405
2157.793	4372
2161.812	4339
2165.827	4250
2169.838	4202
2173.846	4161
2177.851	4038
2181.851	3985
2185.848	3972
2189.841	3929
2193.831	3882
2197.817	3830
2201.799	3811
2205.778	3825
2209.753	3787
2213.725	3772
2217.693	3768
2221.657	3757
2225.618	3786
2229.575	3733
2233.529	3722
2237.479	3685
2241.425	3625
2245.368	3613
2249.307	3524
2253.243	3484
2257.175	3441
2261.104	3363
2265.029	3344
2268.95	3322
2272.868	3271
2276.783	3248
2280.694	3212
2284.601	3176
2288.505	3169
2292.405	3110
2296.302	3096
2300.195	3060
2304.085	3044
2307.971	3005
2311.854	2955
2315.734	2903
2319.609	2865
2323.482	2841
2327.351	2798
2331.216	2798
2335.078	2780
2338.937	2728
2342.792	2743
2346.643	2767
2350.492	2728
2354.336	2722
2358.178	2755
2362.015	2735
2365.85	2780
2369.681	2728
2373.508	2773
2377.333	2751
2381.153	2751
2384.971	2718
2388.785	2701
2392.595	2685
2396.402	2650
2400.206	2649
2404.007	2634
2407.804	2601
2411.597	2603
2415.388	2577
2419.174	2569
2422.958	2539
2426.738	2511
2430.515	2518
2434.289	2489
2438.059	2457
2441.825	2448
2445.589	2414
2449.349	2409
2453.106	2375
2456.859	2327
2460.61	2313
2464.356	2292
2468.1	2256
2471.84	2233
2475.577	2217
2479.311	2206
2483.041	2210
2486.768	2164
2490.492	2166
2494.213	2160
2497.93	2166
2501.644	2151
2505.355	2125
2509.062	2133
2512.766	2109
2516.467	2095
2520.165	2081
2523.859	2066
2527.551	2058
2531.239	2021
2534.923	2017
2538.605	2006
2542.283	2010
2545.958	2012
2549.63	2014
2553.299	2015
2556.964	2001
2560.626	2012
2564.285	1968
2567.941	1969
2571.594	1961
2575.243	1943
2578.89	1923
2582.533	1909
2586.173	1897
2589.809	1885
2593.443	1885
2597.073	1854
2600.701	1832
2604.325	1835
2607.946	1820
2611.564	1804
2615.178	1788
2618.79	1799
2622.398	1760
2626.004	1747
2629.606	1734
2633.205	1706
2636.801	1682
2640.394	1656
2643.983	1628
2647.57	1619
2651.153	1598
2654.734	1552
2658.311	1540
2661.885	1521
2665.456	1497
2669.025	1450
2672.589	1445
2676.151	1417
2679.71	1423
2683.266	1402
2686.819	1390
2690.368	1345
2693.915	1328
2697.458	1285
2700.999	1258
2704.536	1228
2708.071	1193
2711.602	1177
2715.13	1145
2718.656	1117
2722.178	1108
2725.697	1081
2729.214	1082
2732.727	1079
2736.237	1059
2739.744	1045
2743.249	1054
2746.75	1074
2750.248	1065
2753.743	1077
2757.236	1107
2760.725	1092
2764.211	1109
2767.695	1099
2771.175	1110
2774.652	1122
2778.127	1117
2781.598	1096
2785.067	1081
2788.532	1090
2791.995	1071
2795.455	1091
2798.911	1083
2802.365	1084
2805.816	1074
2809.264	1077
2812.709	1074
2816.151	1083
2819.59	1086
2823.026	1072
2826.46	1077
2829.89	1081
2833.318	1087
2836.742	1095
2840.164	1077
2843.583	1087
2846.999	1098
2850.412	1101
2853.822	1129
2857.229	1134
2860.634	1166
2864.035	1169
2867.434	1192
2870.83	1201
2874.223	1223
2877.613	1225
2881	1260
2884.385	1235
2887.766	1237
2891.145	1246
2894.521	1238
2897.894	1242
2901.264	1216
2904.631	1259
2907.996	1224
2911.358	1231
2914.717	1243
2918.073	1249
2921.426	1257
2924.777	1268
2928.124	1270
2931.469	1293
2934.811	1307
2938.15	1312
2941.487	1330
2944.821	1331
2948.152	1331
2951.48	1319
2954.805	1309
2958.128	1294
2961.447	1291
2964.765	1284
2968.079	1273
2971.39	1283
2974.699	1318
2978.005	1334
2981.308	1351
2984.609	1363
2987.907	1400
2991.202	1411
2994.494	1452
2997.784	1454
3001.07	1483
3004.355	1513
3007.636	1550
3010.915	1555
3014.191	1554
3017.464	1560
3020.734	1591
3024.002	1574
3027.267	1611
3030.53	1600
3033.789	1622
3037.046	1632
3040.301	1672
3043.552	1699
3046.801	1699
3050.048	1748
3053.291	1809
3056.532	1839
3059.771	1891
3063.006	1959
3066.239	2026
3069.469	2075
3072.697	2095
3075.922	2153
3079.144	2217
3082.364	2278
3085.581	2295
3088.795	2359
3092.007	2431
3095.216	2455
3098.423	2500
3101.627	2578
3104.828	2628
3108.026	2669
3111.222	2740
3114.416	2803
3117.607	2843
3120.795	2924
3123.98	2996
3127.163	3079
3130.344	3138
3133.521	3217
3136.696	3284
3139.869	3356
3143.039	3390
3146.206	3447
3149.371	3477
3152.533	3539
3155.693	3514
3158.85	3547
3162.005	3548
3165.157	3549
3168.306	3580
3171.453	3582
3174.597	3588
3177.739	3618
3180.878	3611
3184.014	3608
3187.149	3613
3190.28	3588
3193.409	3605
3196.536	3623
3199.659	3632
3202.781	3611
3205.9	3624
3209.016	3626
3212.13	3609
3215.241	3569
3218.35	3526
3221.456	3526
3224.56	3484
3227.661	3427
3230.76	3380
3233.856	3356
3236.95	3317
3240.041	3326
3243.13	3279
3246.216	3257
3249.3	3218
3252.382	3230
3255.46	3217
3258.537	3201
3261.611	3217
3264.682	3187
3267.751	3191
3270.818	3210
3273.882	3179
3276.943	3173
3280.002	3136
3283.059	3095
3286.113	3089
3289.165	3035
3292.214	2986
3295.261	2923
3298.306	2907
3301.348	2825
3304.387	2796
3307.425	2740
3310.459	2708
3313.492	2659
3316.521	2648
3319.549	2618
3322.574	2576
3325.597	2583
3328.617	2540
3331.635	2499
3334.65	2479
3337.663	2483
3340.674	2470
3343.682	2493
3346.688	2452
3349.691	2467
3352.692	2438
3355.691	2394
3358.687	2405
3361.681	2374
3364.673	2312
3367.662	2301
3370.649	2267
3373.633	2241
3376.615	2196
3379.595	2143
3382.572	2132
3385.547	2103
3388.52	2068
3391.49	2029
3394.458	2000
3397.424	1974
3400.387	1949
3403.348	1920
3406.307	1906
3409.263	1882
3412.217	1871
3415.168	1839
3418.118	1803
3421.065	1807
3424.009	1761
3426.951	1737
3429.891	1693
3432.829	1662
3435.764	1630
3438.697	1601
3441.628	1550
3444.557	1483
3447.483	1452
3450.407	1399
3453.328	1365
3456.247	1326
3459.164	1248
3462.079	1222
3464.991	1179
3467.902	1126
3470.809	1083
3473.715	1066
3476.618	1006
3479.519	970
3482.418	944
3485.315	911
3488.209	887
3491.101	833
3493.99	794
3496.878	765
3499.763	746
3502.646	727
3505.527	673
3508.405	644
3511.281	587
3514.155	561
3517.027	546
3519.897	501
3522.764	463
3525.629	419
3528.492	385
3531.352	352
3534.211	314
3537.067	298
3539.921	250
3542.773	219
3545.622	207
3548.469	162
3551.315	148
3554.157	123
3556.998	88
3559.837	68
3562.673	48
3565.507	24
3568.339	10
3571.169	-14
3573.996	-36
3576.822	-45
3579.645	-72
3582.466	-82
3585.285	-115
3588.101	-122
3590.916	-138
3593.728	-158
3596.538	-178
3599.346	-186
3602.152	-209
3604.956	-214
3607.757	-237
3610.556	-254
3613.354	-262
3616.149	-275
3618.942	-280
3621.732	-296
3624.521	-308
3627.307	-310
3630.092	-325
3632.874	-341
3635.654	-345
3638.432	-347
3641.208	-351
3643.982	-369
3646.753	-369
3649.523	-387
3652.29	-393
3655.055	-393
3657.818	-409
3660.579	-421
3663.338	-427
3666.095	-429
3668.849	-447
3671.602	-453
3674.352	-458
3677.101	-457
3679.847	-474
3682.591	-480
3685.333	-477
3688.073	-483
3690.811	-483
3693.547	-494
3696.281	-496
3699.013	-502
3701.742	-506
3704.47	-509
3707.195	-520
3709.919	-518
3712.64	-522
3715.359	-523
3718.076	-528
3720.792	-531
3723.505	-537
3726.216	-537
3728.925	-541
3731.632	-548
3734.336	-547
3737.039	-550
3739.74	-542
3742.439	-555
3745.136	-551
3747.83	-561
3750.523	-555
3753.213	-551
3755.902	-565
3758.589	-565
3761.273	-563
3763.956	-569
3766.636	-571
3769.315	-578
3771.991	-567
3774.665	-584
3777.338	-579
3780.008	-579
3782.677	-583
3785.343	-580
3788.007	-584
3790.67	-578
3793.33	-582
3795.989	-586
3798.645	-579
3801.299	-583
3803.952	-588
3806.602	-596
3809.251	-596
3811.897	-588
3814.542	-595
3817.184	-588
3819.825	-591
3822.463	-589
3825.1	-595
3827.735	-585
3830.367	-592
3832.998	-601
3835.627	-598
3838.253	-601
3840.878	-607
3843.501	-599
3846.122	-602
3848.741	-601
3851.358	-594
3853.973	-602
3856.586	-603
3859.197	-604
3861.806	-605
3864.414	-604
3867.019	-593
3869.622	-602
3872.224	-599
3874.823	-579
3877.421	-572
3880.016	-557
3882.61	-531
3885.202	-525
3887.792	-550
3890.38	-576
3892.966	-591
3895.55	-602
3898.132	-615
3900.713	-619
3903.291	-610
3905.868	-617
3908.442	-613
3911.015	-617
3913.586	-612
3916.155	-610
3918.722	-617
3921.287	-610
3923.85	-620
3926.411	-616
3928.971	-620
3931.528	-613
3934.084	-614
3936.638	-613
3939.19	-619
3941.74	-614
3944.288	-618
3946.834	-613
3949.378	-618
3951.921	-619
3954.462	-626
3957	-616
3959.537	-619
3962.072	-615
3964.606	-621
3967.137	-617
3969.667	-620
3972.194	-612
3974.72	-611
3977.244	-611
3979.766	-609
3982.286	-609
3984.805	-610
3987.321	-606
3989.836	-607
3992.349	-604
3994.86	-599
3997.369	-614
3999.877	-598
4002.382	-606
4004.886	-600
4007.388	-599
4009.888	-602
4012.386	-605
4014.883	-601
4017.377	-599
4019.87	-602
4022.361	-605
4024.85	-605
4027.338	-603
4029.823	-609
4032.307	-611
4034.789	-601
4037.269	-605
4039.747	-605
4042.224	-608
4044.699	-611
4047.172	-608
4049.643	-605
4052.112	-613
4054.58	-613
4057.046	-610
4059.51	-612
4061.972	-610
4064.432	-610
4066.891	-607
4069.348	-603
4071.803	-605
4074.256	-604
4076.708	-607
4079.158	-610
4081.606	-612
4084.052	-611
4086.497	-609
4088.939	-599
4091.38	-601
4093.819	-599
4096.257	-635
4098.693	-637
4101.127	-643
4103.559	-635
4105.989	-373
4108.418	-334
4110.845	-322
4113.27	-296
4115.694	-267
4118.115	-221
4120.535	-607
4122.954	-600
4125.37	-595
4127.785	-612
4130.198	-611
4132.609	-608
4135.019	-641
4137.427	-645
4139.833	-644
4142.237	-637
