Data from 2018-2-14_conc=0_n=6_RamanShift_04.txt Node
Date: Wed Feb 14 10:44:26 IST 2018
User: aro
Spectrometer: QEPB0276
Trigger mode: 0
Integration Time (sec): 3.000000E1
Scans to average: 1
Electric dark correction enabled: true
Nonlinearity correction enabled: false
Boxcar width: 0
XAxis mode: Raman Shifts
Number of Pixels in Spectrum: 1044
>>>>>Begin Spectral Data<<<<<
160.701	-156.4
166.742	48.6
172.777	610.6
178.805	2294.6
184.826	6291.6
190.841	13220.6
196.849	21243.6
202.85	26759.6
208.845	28616.6
214.833	28433.6
220.815	27884.6
226.789	27670.6
232.758	27516.6
238.719	27411.6
244.674	26960.6
250.623	26465.6
256.565	25834.6
262.5	25391.6
268.429	24885.6
274.351	24528.6
280.267	24106.6
286.176	23882.6
292.079	23667.6
297.975	23416.6
303.865	23135.6
309.748	23083.6
315.625	22883.6
321.495	22736.6
327.359	22700.6
333.217	22636.6
339.068	22598.6
344.912	22588.6
350.751	22523.6
356.583	22582.6
362.408	22466.6
368.227	22568.6
374.04	22496.6
379.847	22555.6
385.647	22731.6
391.44	22705.6
397.228	22853.6
403.009	22964.6
408.784	23034.6
414.553	23165.6
420.315	23111.6
426.071	23188.6
431.821	23165.6
437.565	23144.6
443.302	23100.6
449.033	23105.6
454.758	22992.6
460.477	22954.6
466.189	22943.6
471.896	22935.6
477.596	22771.6
483.29	22740.6
488.978	22600.6
494.66	22639.6
500.335	22513.6
506.005	22230.6
511.668	21925.6
517.325	21708.6
522.977	21436.6
528.622	21300.6
534.261	21247.6
539.894	21120.6
545.521	21028.6
551.141	20901.6
556.756	20851.6
562.365	20814.6
567.968	20649.6
573.565	20610.6
579.155	20600.6
584.74	20417.6
590.319	20386.6
595.892	20260.6
601.459	20201.6
607.02	20156.6
612.575	20044.6
618.124	19859.6
623.667	19796.6
629.204	19668.6
634.735	19562.6
640.261	19521.6
645.781	19412.6
651.294	19390.6
656.802	19396.6
662.304	19324.6
667.8	19304.6
673.29	19260.6
678.775	19257.6
684.254	19130.6
689.726	19058.6
695.193	19056.6
700.655	18936.6
706.11	18865.6
711.56	18736.6
717.004	18621.6
722.442	18506.6
727.874	18508.6
733.301	18446.6
738.722	18389.6
744.137	18349.6
749.547	18316.6
754.951	18332.6
760.349	18360.6
765.741	18313.6
771.128	18295.6
776.509	18370.6
781.885	18399.6
787.254	18295.6
792.618	18272.6
797.977	18103.6
803.33	17986.6
808.677	17925.6
814.019	17811.6
819.355	17680.6
824.686	17605.6
830.011	17582.6
835.33	17603.6
840.644	17582.6
845.952	17599.6
851.255	17649.6
856.552	17645.6
861.844	17621.6
867.13	17625.6
872.41	17493.6
877.686	17439.6
882.955	17298.6
888.219	17056.6
893.478	17002.6
898.731	16736.6
903.979	16547.6
909.221	16464.6
914.458	16412.6
919.69	16403.6
924.916	16406.6
930.136	16453.6
935.351	16501.6
940.561	16512.6
945.766	16413.6
950.965	16398.6
956.158	16267.6
961.347	16054.6
966.529	15919.6
971.707	15703.6
976.879	15481.6
982.046	15382.6
987.208	15351.6
992.364	15342.6
997.515	15396.6
1002.66	15517.6
1007.801	15696.6
1012.936	15864.6
1018.066	15859.6
1023.19	15831.6
1028.309	15800.6
1033.423	15808.6
1038.532	15755.6
1043.636	15587.6
1048.734	15426.6
1053.827	15197.6
1058.915	15084.6
1063.998	14916.6
1069.075	14904.6
1074.147	14890.6
1079.214	14940.6
1084.276	15080.6
1089.333	15133.6
1094.385	15187.6
1099.431	15219.6
1104.472	15259.6
1109.509	15179.6
1114.54	14983.6
1119.565	14793.6
1124.586	14611.6
1129.602	14479.6
1134.613	14297.6
1139.618	14280.6
1144.619	14203.6
1149.614	14248.6
1154.604	14253.6
1159.589	14299.6
1164.57	14326.6
1169.545	14345.6
1174.515	14377.6
1179.48	14213.6
1184.44	14187.6
1189.395	14066.6
1194.345	13966.6
1199.29	13903.6
1204.23	13889.6
1209.165	13914.6
1214.095	14033.6
1219.021	14109.6
1223.941	14156.6
1228.856	14270.6
1233.766	14206.6
1238.672	14327.6
1243.572	14289.6
1248.467	14195.6
1253.358	14028.6
1258.244	13823.6
1263.124	13663.6
1268	13413.6
1272.871	13285.6
1277.737	13213.6
1282.599	13074.6
1287.455	13033.6
1292.306	13112.6
1297.153	13151.6
1301.995	13172.6
1306.832	13309.6
1311.664	13291.6
1316.491	13261.6
1321.314	13171.6
1326.132	12948.6
1330.945	12688.6
1335.753	12405.6
1340.556	12064.6
1345.354	11890.6
1350.148	11681.6
1354.937	11581.6
1359.722	11574.6
1364.501	11687.6
1369.276	11794.6
1374.046	11939.6
1378.811	12098.6
1383.572	12233.6
1388.327	12263.6
1393.079	12181.6
1397.825	12044.6
1402.567	11832.6
1407.304	11693.6
1412.036	11622.6
1416.764	11458.6
1421.487	11380.6
1426.205	11341.6
1430.919	11307.6
1435.628	11308.6
1440.333	11343.6
1445.032	11360.6
1449.727	11448.6
1454.418	11411.6
1459.104	11303.6
1463.785	11101.6
1468.462	10855.6
1473.134	10637.6
1477.802	10493.6
1482.465	10292.6
1487.123	10183.6
1491.777	10138.6
1496.426	10231.6
1501.071	10369.6
1505.711	10502.6
1510.347	10725.6
1514.978	10883.6
1519.604	11040.6
1524.226	11113.6
1528.844	11154.6
1533.457	11088.6
1538.065	11022.6
1542.669	10942.6
1547.269	10866.6
1551.864	10772.6
1556.454	10727.6
1561.041	10699.6
1565.622	10749.6
1570.199	10710.6
1574.772	10772.6
1579.34	10849.6
1583.904	10899.6
1588.464	10936.6
1593.019	10934.6
1597.569	10927.6
1602.115	10829.6
1606.657	10770.6
1611.195	10715.6
1615.728	10656.6
1620.256	10611.6
1624.78	10609.6
1629.3	10585.6
1633.816	10715.6
1638.327	10712.6
1642.834	10750.6
1647.336	10808.6
1651.834	10812.6
1656.328	10825.6
1660.817	10805.6
1665.302	10709.6
1669.783	10520.6
1674.259	10258.6
1678.732	10000.6
1683.199	9713.6
1687.663	9373.6
1692.122	9168.6
1696.577	9006.6
1701.028	8967.6
1705.474	8997.6
1709.917	9070.6
1714.355	9100.6
1718.788	9011.6
1723.218	8889.6
1727.643	8702.6
1732.064	8590.6
1736.481	8366.6
1740.893	8139.6
1745.301	7953.6
1749.705	7748.6
1754.105	7545.6
1758.501	7330.6
1762.893	7117.6
1767.28	6954.6
1771.663	6841.6
1776.042	6754.6
1780.417	6688.6
1784.787	6713.6
1789.154	6796.6
1793.516	6932.6
1797.874	7057.6
1802.228	7130.6
1806.578	7170.6
1810.924	7159.6
1815.266	7094.6
1819.603	7017.6
1823.937	6866.6
1828.266	6751.6
1832.591	6656.6
1836.913	6572.6
1841.23	6477.6
1845.543	6432.6
1849.852	6444.6
1854.156	6373.6
1858.457	6399.6
1862.754	6392.6
1867.047	6374.6
1871.335	6339.6
1875.62	6376.6
1879.9	6371.6
1884.177	6327.6
1888.449	6247.6
1892.718	6196.6
1896.982	6162.6
1901.243	6119.6
1905.499	6095.6
1909.752	6044.6
1914	6067.6
1918.245	6073.6
1922.485	6166.6
1926.722	6192.6
1930.954	6271.6
1935.183	6323.6
1939.408	6392.6
1943.628	6409.6
1947.845	6431.6
1952.058	6424.6
1956.267	6360.6
1960.472	6256.6
1964.673	6174.6
1968.87	6040.6
1973.063	5961.6
1977.252	5853.6
1981.438	5789.6
1985.619	5760.6
1989.797	5700.6
1993.971	5676.6
1998.14	5668.6
2002.306	5592.6
2006.469	5604.6
2010.627	5526.6
2014.781	5530.6
2018.932	5473.6
2023.078	5444.6
2027.221	5384.6
2031.36	5291.6
2035.495	5206.6
2039.627	5137.6
2043.754	5050.6
2047.878	5063.6
2051.998	5020.6
2056.114	4989.6
2060.226	4993.6
2064.334	5005.6
2068.439	5047.6
2072.54	5081.6
2076.637	5086.6
2080.73	5142.6
2084.82	5147.6
2088.906	5153.6
2092.988	5214.6
2097.066	5140.6
2101.14	5107.6
2105.211	5062.6
2109.278	5064.6
2113.342	5007.6
2117.401	4972.6
2121.457	4908.6
2125.509	4900.6
2129.558	4895.6
2133.602	4854.6
2137.643	4835.6
2141.681	4803.6
2145.714	4756.6
2149.744	4748.6
2153.77	4706.6
2157.793	4648.6
2161.812	4596.6
2165.827	4528.6
2169.838	4474.6
2173.846	4376.6
2177.851	4312.6
2181.851	4252.6
2185.848	4203.6
2189.841	4128.6
2193.831	4106.6
2197.817	4076.6
2201.799	4043.6
2205.778	4009.6
2209.753	3972.6
2213.725	4025.6
2217.693	3969.6
2221.657	3964.6
2225.618	3978.6
2229.575	3923.6
2233.529	3907.6
2237.479	3835.6
2241.425	3834.6
2245.368	3780.6
2249.307	3708.6
2253.243	3671.6
2257.175	3598.6
2261.104	3521.6
2265.029	3543.6
2268.95	3480.6
2272.868	3438.6
2276.783	3392.6
2280.694	3374.6
2284.601	3309.6
2288.505	3319.6
2292.405	3242.6
2296.302	3211.6
2300.195	3199.6
2304.085	3157.6
2307.971	3099.6
2311.854	3055.6
2315.734	2990.6
2319.609	2958.6
2323.482	2928.6
2327.351	2873.6
2331.216	2857.6
2335.078	2841.6
2338.937	2837.6
2342.792	2782.6
2346.643	2793.6
2350.492	2795.6
2354.336	2800.6
2358.178	2799.6
2362.015	2809.6
2365.85	2796.6
2369.681	2793.6
2373.508	2786.6
2377.333	2783.6
2381.153	2782.6
2384.971	2756.6
2388.785	2740.6
2392.595	2702.6
2396.402	2703.6
2400.206	2655.6
2404.007	2640.6
2407.804	2623.6
2411.597	2624.6
2415.388	2586.6
2419.174	2583.6
2422.958	2563.6
2426.738	2538.6
2430.515	2523.6
2434.289	2507.6
2438.059	2494.6
2441.825	2454.6
2445.589	2434.6
2449.349	2415.6
2453.106	2403.6
2456.859	2339.6
2460.61	2327.6
2464.356	2290.6
2468.1	2261.6
2471.84	2248.6
2475.577	2219.6
2479.311	2228.6
2483.041	2195.6
2486.768	2195.6
2490.492	2179.6
2494.213	2195.6
2497.93	2181.6
2501.644	2209.6
2505.355	2154.6
2509.062	2151.6
2512.766	2141.6
2516.467	2141.6
2520.165	2129.6
2523.859	2101.6
2527.551	2061.6
2531.239	2081.6
2534.923	2078.6
2538.605	2053.6
2542.283	2044.6
2545.958	2053.6
2549.63	2053.6
2553.299	2044.6
2556.964	2052.6
2560.626	2035.6
2564.285	1997.6
2567.941	2014.6
2571.594	1981.6
2575.243	1959.6
2578.89	1972.6
2582.533	1936.6
2586.173	1922.6
2589.809	1917.6
2593.443	1911.6
2597.073	1896.6
2600.701	1884.6
2604.325	1852.6
2607.946	1845.6
2611.564	1815.6
2615.178	1810.6
2618.79	1800.6
2622.398	1756.6
2626.004	1758.6
2629.606	1746.6
2633.205	1706.6
2636.801	1672.6
2640.394	1647.6
2643.983	1639.6
2647.57	1606.6
2651.153	1589.6
2654.734	1565.6
2658.311	1549.6
2661.885	1506.6
2665.456	1501.6
2669.025	1470.6
2672.589	1452.6
2676.151	1449.6
2679.71	1416.6
2683.266	1410.6
2686.819	1386.6
2690.368	1369.6
2693.915	1311.6
2697.458	1289.6
2700.999	1269.6
2704.536	1244.6
2708.071	1229.6
2711.602	1193.6
2715.13	1175.6
2718.656	1155.6
2722.178	1136.6
2725.697	1120.6
2729.214	1105.6
2732.727	1098.6
2736.237	1101.6
2739.744	1100.6
2743.249	1122.6
2746.75	1141.6
2750.248	1132.6
2753.743	1158.6
2757.236	1165.6
2760.725	1164.6
2764.211	1175.6
2767.695	1152.6
2771.175	1173.6
2774.652	1144.6
2778.127	1141.6
2781.598	1137.6
2785.067	1129.6
2788.532	1123.6
2791.995	1108.6
2795.455	1138.6
2798.911	1128.6
2802.365	1114.6
2805.816	1122.6
2809.264	1127.6
2812.709	1114.6
2816.151	1135.6
2819.59	1119.6
2823.026	1123.6
2826.46	1134.6
2829.89	1128.6
2833.318	1123.6
2836.742	1119.6
2840.164	1150.6
2843.583	1158.6
2846.999	1162.6
2850.412	1168.6
2853.822	1167.6
2857.229	1172.6
2860.634	1192.6
2864.035	1213.6
2867.434	1234.6
2870.83	1272.6
2874.223	1293.6
2877.613	1307.6
2881	1332.6
2884.385	1341.6
2887.766	1323.6
2891.145	1323.6
2894.521	1315.6
2897.894	1344.6
2901.264	1308.6
2904.631	1327.6
2907.996	1327.6
2911.358	1323.6
2914.717	1352.6
2918.073	1358.6
2921.426	1363.6
2924.777	1375.6
2928.124	1389.6
2931.469	1437.6
2934.811	1448.6
2938.15	1475.6
2941.487	1491.6
2944.821	1507.6
2948.152	1483.6
2951.48	1480.6
2954.805	1477.6
2958.128	1458.6
2961.447	1451.6
2964.765	1457.6
2968.079	1456.6
2971.39	1471.6
2974.699	1498.6
2978.005	1509.6
2981.308	1528.6
2984.609	1555.6
2987.907	1588.6
2991.202	1615.6
2994.494	1648.6
2997.784	1684.6
3001.07	1680.6
3004.355	1746.6
3007.636	1761.6
3010.915	1784.6
3014.191	1790.6
3017.464	1811.6
3020.734	1822.6
3024.002	1847.6
3027.267	1842.6
3030.53	1842.6
3033.789	1896.6
3037.046	1893.6
3040.301	1937.6
3043.552	1953.6
3046.801	1999.6
3050.048	2043.6
3053.291	2083.6
3056.532	2147.6
3059.771	2206.6
3063.006	2292.6
3066.239	2348.6
3069.469	2415.6
3072.697	2478.6
3075.922	2531.6
3079.144	2596.6
3082.364	2648.6
3085.581	2709.6
3088.795	2759.6
3092.007	2832.6
3095.216	2860.6
3098.423	2927.6
3101.627	3020.6
3104.828	3072.6
3108.026	3163.6
3111.222	3190.6
3114.416	3280.6
3117.607	3342.6
3120.795	3431.6
3123.98	3495.6
3127.163	3586.6
3130.344	3658.6
3133.521	3739.6
3136.696	3846.6
3139.869	3909.6
3143.039	3955.6
3146.206	4040.6
3149.371	4092.6
3152.533	4114.6
3155.693	4163.6
3158.85	4183.6
3162.005	4187.6
3165.157	4195.6
3168.306	4243.6
3171.453	4221.6
3174.597	4224.6
3177.739	4262.6
3180.878	4219.6
3184.014	4267.6
3187.149	4270.6
3190.28	4287.6
3193.409	4257.6
3196.536	4293.6
3199.659	4294.6
3202.781	4292.6
3205.9	4294.6
3209.016	4295.6
3212.13	4289.6
3215.241	4242.6
3218.35	4224.6
3221.456	4184.6
3224.56	4137.6
3227.661	4097.6
3230.76	4020.6
3233.856	4005.6
3236.95	3959.6
3240.041	3942.6
3243.13	3884.6
3246.216	3882.6
3249.3	3855.6
3252.382	3846.6
3255.46	3836.6
3258.537	3836.6
3261.611	3825.6
3264.682	3831.6
3267.751	3800.6
3270.818	3804.6
3273.882	3784.6
3276.943	3745.6
3280.002	3746.6
3283.059	3689.6
3286.113	3672.6
3289.165	3626.6
3292.214	3554.6
3295.261	3517.6
3298.306	3443.6
3301.348	3402.6
3304.387	3336.6
3307.425	3275.6
3310.459	3237.6
3313.492	3176.6
3316.521	3134.6
3319.549	3122.6
3322.574	3072.6
3325.597	3067.6
3328.617	3032.6
3331.635	3010.6
3334.65	2997.6
3337.663	2957.6
3340.674	2967.6
3343.682	2925.6
3346.688	2958.6
3349.691	2938.6
3352.692	2933.6
3355.691	2890.6
3358.687	2866.6
3361.681	2823.6
3364.673	2785.6
3367.662	2753.6
3370.649	2729.6
3373.633	2668.6
3376.615	2605.6
3379.595	2600.6
3382.572	2556.6
3385.547	2534.6
3388.52	2499.6
3391.49	2449.6
3394.458	2402.6
3397.424	2348.6
3400.387	2339.6
3403.348	2308.6
3406.307	2281.6
3409.263	2258.6
3412.217	2253.6
3415.168	2231.6
3418.118	2195.6
3421.065	2171.6
3424.009	2136.6
3426.951	2105.6
3429.891	2067.6
3432.829	2014.6
3435.764	1978.6
3438.697	1923.6
3441.628	1863.6
3444.557	1819.6
3447.483	1748.6
3450.407	1701.6
3453.328	1649.6
3456.247	1573.6
3459.164	1538.6
3462.079	1481.6
3464.991	1434.6
3467.902	1390.6
3470.809	1341.6
3473.715	1275.6
3476.618	1249.6
3479.519	1174.6
3482.418	1154.6
3485.315	1108.6
3488.209	1064.6
3491.101	1037.6
3493.99	994.6
3496.878	955.6
3499.763	931.6
3502.646	869.6
3505.527	831.6
3508.405	816.6
3511.281	753.6
3514.155	717.6
3517.027	689.6
3519.897	646.6
3522.764	586.6
3525.629	554.6
3528.492	502.6
3531.352	460.6
3534.211	417.6
3537.067	369.6
3539.921	335.6
3542.773	313.6
3545.622	261.6
3548.469	230.6
3551.315	223.6
3554.157	176.6
3556.998	139.6
3559.837	120.6
3562.673	108.6
3565.507	76.6
3568.339	60.6
3571.169	33.6
3573.996	7.6
3576.822	-7.4
3579.645	-28.4
3582.466	-58.4
3585.285	-70.4
3588.101	-89.4
3590.916	-121.4
3593.728	-142.4
3596.538	-151.4
3599.346	-178.4
3602.152	-185.4
3604.956	-196.4
3607.757	-229.4
3610.556	-241.4
3613.354	-251.4
3616.149	-272.4
3618.942	-284.4
3621.732	-296.4
3624.521	-316.4
3627.307	-322.4
3630.092	-330.4
3632.874	-345.4
3635.654	-363.4
3638.432	-359.4
3641.208	-365.4
3643.982	-384.4
3646.753	-383.4
3649.523	-402.4
3652.29	-405.4
3655.055	-413.4
3657.818	-424.4
3660.579	-448.4
3663.338	-455.4
3666.095	-456.4
3668.849	-471.4
3671.602	-473.4
3674.352	-490.4
3677.101	-496.4
3679.847	-508.4
3682.591	-511.4
3685.333	-515.4
3688.073	-519.4
3690.811	-525.4
3693.547	-533.4
3696.281	-535.4
3699.013	-545.4
3701.742	-547.4
3704.47	-557.4
3707.195	-560.4
3709.919	-562.4
3712.64	-568.4
3715.359	-571.4
3718.076	-570.4
3720.792	-579.4
3723.505	-572.4
3726.216	-583.4
3728.925	-583.4
3731.632	-596.4
3734.336	-592.4
3737.039	-595.4
3739.74	-593.4
3742.439	-595.4
3745.136	-603.4
3747.83	-610.4
3750.523	-605.4
3753.213	-585.4
3755.902	-607.4
3758.589	-616.4
3761.273	-618.4
3763.956	-617.4
3766.636	-617.4
3769.315	-620.4
3771.991	-626.4
3774.665	-622.4
3777.338	-623.4
3780.008	-627.4
3782.677	-632.4
3785.343	-628.4
3788.007	-635.4
3790.67	-634.4
3793.33	-638.4
3795.989	-642.4
3798.645	-638.4
3801.299	-641.4
3803.952	-642.4
3806.602	-651.4
3809.251	-642.4
3811.897	-639.4
3814.542	-646.4
3817.184	-641.4
3819.825	-638.4
3822.463	-639.4
3825.1	-641.4
3827.735	-646.4
3830.367	-643.4
3832.998	-660.4
3835.627	-658.4
3838.253	-653.4
3840.878	-654.4
3843.501	-654.4
3846.122	-647.4
3848.741	-650.4
3851.358	-652.4
3853.973	-653.4
3856.586	-655.4
3859.197	-660.4
3861.806	-660.4
3864.414	-659.4
3867.019	-656.4
3869.622	-657.4
3872.224	-651.4
3874.823	-640.4
3877.421	-627.4
3880.016	-603.4
3882.61	-580.4
3885.202	-573.4
3887.792	-592.4
3890.38	-626.4
3892.966	-641.4
3895.55	-660.4
3898.132	-668.4
3900.713	-674.4
3903.291	-668.4
3905.868	-675.4
3908.442	-672.4
3911.015	-670.4
3913.586	-663.4
3916.155	-667.4
3918.722	-672.4
3921.287	-662.4
3923.85	-672.4
3926.411	-675.4
3928.971	-682.4
3931.528	-673.4
3934.084	-674.4
3936.638	-675.4
3939.19	-677.4
3941.74	-674.4
3944.288	-681.4
3946.834	-676.4
3949.378	-675.4
3951.921	-672.4
3954.462	-675.4
3957	-671.4
3959.537	-675.4
3962.072	-673.4
3964.606	-676.4
3967.137	-671.4
3969.667	-674.4
3972.194	-671.4
3974.72	-676.4
3977.244	-664.4
3979.766	-667.4
3982.286	-665.4
3984.805	-662.4
3987.321	-663.4
3989.836	-658.4
3992.349	-650.4
3994.86	-657.4
3997.369	-663.4
3999.877	-656.4
4002.382	-657.4
4004.886	-656.4
4007.388	-653.4
4009.888	-655.4
4012.386	-664.4
4014.883	-660.4
4017.377	-660.4
4019.87	-657.4
4022.361	-656.4
4024.85	-660.4
4027.338	-661.4
4029.823	-660.4
4032.307	-659.4
4034.789	-659.4
4037.269	-656.4
4039.747	-658.4
4042.224	-668.4
4044.699	-666.4
4047.172	-662.4
4049.643	-665.4
4052.112	-672.4
4054.58	-666.4
4057.046	-663.4
4059.51	-664.4
4061.972	-668.4
4064.432	-669.4
4066.891	-664.4
4069.348	-662.4
4071.803	-658.4
4074.256	-664.4
4076.708	-663.4
4079.158	-660.4
4081.606	-667.4
4084.052	-673.4
4086.497	-666.4
4088.939	-654.4
4091.38	-660.4
4093.819	-656.4
4096.257	-695.4
4098.693	-696.4
4101.127	-703.4
4103.559	-700.4
4105.989	-407.4
4108.418	-386.4
4110.845	-353.4
4113.27	-330.4
4115.694	-295.4
4118.115	-238.4
4120.535	-658.4
4122.954	-659.4
4125.37	-654.4
4127.785	-656.4
4130.198	-658.4
4132.609	-661.4
4135.019	-698.4
4137.427	-698.4
4139.833	-703.4
4142.237	-697.4
