Data from 2018-2-14_conc=2_n=1_RamanShift_05.txt Node
Date: Wed Feb 14 11:01:56 IST 2018
User: aro
Spectrometer: QEPB0276
Trigger mode: 0
Integration Time (sec): 3.000000E1
Scans to average: 1
Electric dark correction enabled: true
Nonlinearity correction enabled: false
Boxcar width: 0
XAxis mode: Raman Shifts
Number of Pixels in Spectrum: 1044
>>>>>Begin Spectral Data<<<<<
160.701	-127.8
166.742	46.2
172.777	531.2
178.805	1987.2
184.826	5456.2
190.841	11470.2
196.849	18283.2
202.85	23383.2
208.845	25019.2
214.833	24856.2
220.815	24453.2
226.789	24353.2
232.758	24284.2
238.719	24208.2
244.674	23965.2
250.623	23586.2
256.565	23156.2
262.5	22720.2
268.429	22324.2
274.351	22039.2
280.267	21831.2
286.176	21644.2
292.079	21454.2
297.975	21349.2
303.865	21165.2
309.748	21006.2
315.625	20905.2
321.495	20866.2
327.359	20766.2
333.217	20797.2
339.068	20696.2
344.912	20761.2
350.751	20728.2
356.583	20679.2
362.408	20708.2
368.227	20614.2
374.04	20759.2
379.847	20770.2
385.647	20898.2
391.44	20890.2
397.228	20981.2
403.009	21038.2
408.784	21099.2
414.553	21213.2
420.315	21332.2
426.071	21284.2
431.821	21229.2
437.565	21207.2
443.302	21244.2
449.033	21125.2
454.758	21171.2
460.477	21062.2
466.189	20987.2
471.896	20903.2
477.596	20882.2
483.29	20900.2
488.978	20863.2
494.66	20786.2
500.335	20647.2
506.005	20435.2
511.668	20173.2
517.325	19931.2
522.977	19732.2
528.622	19595.2
534.261	19437.2
539.894	19324.2
545.521	19253.2
551.141	19161.2
556.756	19166.2
562.365	19051.2
567.968	18981.2
573.565	18873.2
579.155	18899.2
584.74	18788.2
590.319	18710.2
595.892	18689.2
601.459	18551.2
607.02	18533.2
612.575	18337.2
618.124	18227.2
623.667	18134.2
629.204	18078.2
634.735	17951.2
640.261	17892.2
645.781	17878.2
651.294	17808.2
656.802	17783.2
662.304	17740.2
667.8	17659.2
673.29	17685.2
678.775	17698.2
684.254	17588.2
689.726	17544.2
695.193	17495.2
700.655	17452.2
706.11	17306.2
711.56	17252.2
717.004	17155.2
722.442	17058.2
727.874	16996.2
733.301	16956.2
738.722	16913.2
744.137	16909.2
749.547	16889.2
754.951	16845.2
760.349	16841.2
765.741	16873.2
771.128	16834.2
776.509	16879.2
781.885	16917.2
787.254	16853.2
792.618	16751.2
797.977	16691.2
803.33	16576.2
808.677	16492.2
814.019	16373.2
819.355	16322.2
824.686	16211.2
830.011	16171.2
835.33	16170.2
840.644	16207.2
845.952	16187.2
851.255	16203.2
856.552	16268.2
861.844	16217.2
867.13	16107.2
872.41	16114.2
877.686	16023.2
882.955	15887.2
888.219	15789.2
893.478	15605.2
898.731	15412.2
903.979	15298.2
909.221	15130.2
914.458	15113.2
919.69	15098.2
924.916	15150.2
930.136	15176.2
935.351	15172.2
940.561	15224.2
945.766	15133.2
950.965	15092.2
956.158	15050.2
961.347	14868.2
966.529	14656.2
971.707	14455.2
976.879	14273.2
982.046	14170.2
987.208	14149.2
992.364	14153.2
997.515	14249.2
1002.66	14364.2
1007.801	14510.2
1012.936	14616.2
1018.066	14598.2
1023.19	14586.2
1028.309	14626.2
1033.423	14550.2
1038.532	14495.2
1043.636	14350.2
1048.734	14184.2
1053.827	14041.2
1058.915	13866.2
1063.998	13760.2
1069.075	13742.2
1074.147	13780.2
1079.214	13808.2
1084.276	13872.2
1089.333	13945.2
1094.385	14060.2
1099.431	14066.2
1104.472	14029.2
1109.509	13936.2
1114.54	13767.2
1119.565	13629.2
1124.586	13487.2
1129.602	13331.2
1134.613	13259.2
1139.618	13159.2
1144.619	13113.2
1149.614	13130.2
1154.604	13168.2
1159.589	13166.2
1164.57	13182.2
1169.545	13220.2
1174.515	13229.2
1179.48	13137.2
1184.44	13058.2
1189.395	12961.2
1194.345	12815.2
1199.29	12799.2
1204.23	12784.2
1209.165	12849.2
1214.095	12903.2
1219.021	12966.2
1223.941	13028.2
1228.856	13117.2
1233.766	13129.2
1238.672	13135.2
1243.572	13147.2
1248.467	13023.2
1253.358	12901.2
1258.244	12676.2
1263.124	12491.2
1268	12304.2
1272.871	12158.2
1277.737	12115.2
1282.599	12014.2
1287.455	12007.2
1292.306	12022.2
1297.153	12088.2
1301.995	12114.2
1306.832	12159.2
1311.664	12168.2
1316.491	12140.2
1321.314	11998.2
1326.132	11822.2
1330.945	11595.2
1335.753	11301.2
1340.556	11034.2
1345.354	10856.2
1350.148	10639.2
1354.937	10559.2
1359.722	10572.2
1364.501	10622.2
1369.276	10719.2
1374.046	10796.2
1378.811	10918.2
1383.572	11044.2
1388.327	11054.2
1393.079	10988.2
1397.825	10876.2
1402.567	10756.2
1407.304	10629.2
1412.036	10525.2
1416.764	10464.2
1421.487	10393.2
1426.205	10338.2
1430.919	10279.2
1435.628	10312.2
1440.333	10306.2
1445.032	10326.2
1449.727	10371.2
1454.418	10370.2
1459.104	10180.2
1463.785	10018.2
1468.462	9792.2
1473.134	9619.2
1477.802	9397.2
1482.465	9277.2
1487.123	9186.2
1491.777	9176.2
1496.426	9206.2
1501.071	9282.2
1505.711	9409.2
1510.347	9588.2
1514.978	9732.2
1519.604	9841.2
1524.226	9875.2
1528.844	9966.2
1533.457	9939.2
1538.065	9885.2
1542.669	9836.2
1547.269	9669.2
1551.864	9675.2
1556.454	9621.2
1561.041	9620.2
1565.622	9563.2
1570.199	9580.2
1574.772	9677.2
1579.34	9729.2
1583.904	9758.2
1588.464	9858.2
1593.019	9825.2
1597.569	9774.2
1602.115	9663.2
1606.657	9634.2
1611.195	9545.2
1615.728	9502.2
1620.256	9408.2
1624.78	9413.2
1629.3	9408.2
1633.816	9462.2
1638.327	9454.2
1642.834	9490.2
1647.336	9554.2
1651.834	9534.2
1656.328	9550.2
1660.817	9498.2
1665.302	9385.2
1669.783	9231.2
1674.259	9023.2
1678.732	8802.2
1683.199	8489.2
1687.663	8261.2
1692.122	7970.2
1696.577	7883.2
1701.028	7827.2
1705.474	7892.2
1709.917	7923.2
1714.355	7941.2
1718.788	7897.2
1723.218	7828.2
1727.643	7708.2
1732.064	7557.2
1736.481	7399.2
1740.893	7238.2
1745.301	7039.2
1749.705	6887.2
1754.105	6663.2
1758.501	6473.2
1762.893	6257.2
1767.28	6145.2
1771.663	6000.2
1776.042	5890.2
1780.417	5845.2
1784.787	5846.2
1789.154	5905.2
1793.516	5997.2
1797.874	6107.2
1802.228	6227.2
1806.578	6291.2
1810.924	6284.2
1815.266	6223.2
1819.603	6113.2
1823.937	6052.2
1828.266	5942.2
1832.591	5836.2
1836.913	5774.2
1841.23	5738.2
1845.543	5667.2
1849.852	5648.2
1854.156	5631.2
1858.457	5611.2
1862.754	5589.2
1867.047	5606.2
1871.335	5611.2
1875.62	5597.2
1879.9	5566.2
1884.177	5508.2
1888.449	5449.2
1892.718	5413.2
1896.982	5321.2
1901.243	5294.2
1905.499	5260.2
1909.752	5235.2
1914	5232.2
1918.245	5241.2
1922.485	5288.2
1926.722	5376.2
1930.954	5403.2
1935.183	5460.2
1939.408	5546.2
1943.628	5551.2
1947.845	5572.2
1952.058	5536.2
1956.267	5502.2
1960.472	5440.2
1964.673	5337.2
1968.87	5245.2
1973.063	5161.2
1977.252	5093.2
1981.438	5050.2
1985.619	4974.2
1989.797	4930.2
1993.971	4913.2
1998.14	4893.2
2002.306	4838.2
2006.469	4838.2
2010.627	4826.2
2014.781	4771.2
2018.932	4745.2
2023.078	4702.2
2027.221	4647.2
2031.36	4540.2
2035.495	4464.2
2039.627	4404.2
2043.754	4358.2
2047.878	4306.2
2051.998	4249.2
2056.114	4263.2
2060.226	4234.2
2064.334	4247.2
2068.439	4266.2
2072.54	4291.2
2076.637	4321.2
2080.73	4347.2
2084.82	4382.2
2088.906	4360.2
2092.988	4408.2
2097.066	4365.2
2101.14	4358.2
2105.211	4313.2
2109.278	4293.2
2113.342	4265.2
2117.401	4244.2
2121.457	4214.2
2125.509	4206.2
2129.558	4163.2
2133.602	4152.2
2137.643	4123.2
2141.681	4119.2
2145.714	4067.2
2149.744	4056.2
2153.77	4005.2
2157.793	3982.2
2161.812	3930.2
2165.827	3880.2
2169.838	3825.2
2173.846	3747.2
2177.851	3701.2
2181.851	3629.2
2185.848	3576.2
2189.841	3558.2
2193.831	3505.2
2197.817	3486.2
2201.799	3462.2
2205.778	3447.2
2209.753	3428.2
2213.725	3431.2
2217.693	3407.2
2221.657	3432.2
2225.618	3407.2
2229.575	3378.2
2233.529	3321.2
2237.479	3322.2
2241.425	3276.2
2245.368	3218.2
2249.307	3182.2
2253.243	3151.2
2257.175	3119.2
2261.104	3044.2
2265.029	3031.2
2268.95	3014.2
2272.868	2958.2
2276.783	2925.2
2280.694	2913.2
2284.601	2870.2
2288.505	2830.2
2292.405	2825.2
2296.302	2771.2
2300.195	2764.2
2304.085	2739.2
2307.971	2679.2
2311.854	2643.2
2315.734	2586.2
2319.609	2554.2
2323.482	2556.2
2327.351	2511.2
2331.216	2488.2
2335.078	2496.2
2338.937	2477.2
2342.792	2467.2
2346.643	2455.2
2350.492	2463.2
2354.336	2445.2
2358.178	2461.2
2362.015	2484.2
2365.85	2473.2
2369.681	2478.2
2373.508	2470.2
2377.333	2484.2
2381.153	2465.2
2384.971	2431.2
2388.785	2425.2
2392.595	2397.2
2396.402	2409.2
2400.206	2407.2
2404.007	2354.2
2407.804	2337.2
2411.597	2349.2
2415.388	2302.2
2419.174	2295.2
2422.958	2283.2
2426.738	2267.2
2430.515	2282.2
2434.289	2246.2
2438.059	2219.2
2441.825	2187.2
2445.589	2176.2
2449.349	2141.2
2453.106	2130.2
2456.859	2078.2
2460.61	2056.2
2464.356	2042.2
2468.1	2042.2
2471.84	1988.2
2475.577	1973.2
2479.311	1958.2
2483.041	1976.2
2486.768	1935.2
2490.492	1932.2
2494.213	1937.2
2497.93	1915.2
2501.644	1904.2
2505.355	1899.2
2509.062	1885.2
2512.766	1880.2
2516.467	1881.2
2520.165	1855.2
2523.859	1842.2
2527.551	1837.2
2531.239	1823.2
2534.923	1803.2
2538.605	1793.2
2542.283	1780.2
2545.958	1783.2
2549.63	1784.2
2553.299	1785.2
2556.964	1794.2
2560.626	1739.2
2564.285	1757.2
2567.941	1755.2
2571.594	1735.2
2575.243	1745.2
2578.89	1740.2
2582.533	1702.2
2586.173	1694.2
2589.809	1686.2
2593.443	1662.2
2597.073	1661.2
2600.701	1636.2
2604.325	1626.2
2607.946	1591.2
2611.564	1601.2
2615.178	1588.2
2618.79	1573.2
2622.398	1543.2
2626.004	1547.2
2629.606	1523.2
2633.205	1479.2
2636.801	1488.2
2640.394	1474.2
2643.983	1431.2
2647.57	1412.2
2651.153	1380.2
2654.734	1380.2
2658.311	1326.2
2661.885	1317.2
2665.456	1305.2
2669.025	1290.2
2672.589	1255.2
2676.151	1279.2
2679.71	1235.2
2683.266	1228.2
2686.819	1209.2
2690.368	1177.2
2693.915	1165.2
2697.458	1120.2
2700.999	1093.2
2704.536	1068.2
2708.071	1061.2
2711.602	1012.2
2715.13	993.2
2718.656	981.2
2722.178	972.2
2725.697	952.2
2729.214	935.2
2732.727	935.2
2736.237	908.2
2739.744	923.2
2743.249	912.2
2746.75	927.2
2750.248	946.2
2753.743	953.2
2757.236	960.2
2760.725	964.2
2764.211	959.2
2767.695	976.2
2771.175	961.2
2774.652	960.2
2778.127	958.2
2781.598	942.2
2785.067	944.2
2788.532	951.2
2791.995	930.2
2795.455	943.2
2798.911	933.2
2802.365	948.2
2805.816	938.2
2809.264	945.2
2812.709	929.2
2816.151	921.2
2819.59	937.2
2823.026	947.2
2826.46	942.2
2829.89	936.2
2833.318	934.2
2836.742	927.2
2840.164	939.2
2843.583	957.2
2846.999	970.2
2850.412	979.2
2853.822	981.2
2857.229	992.2
2860.634	1003.2
2864.035	1025.2
2867.434	1012.2
2870.83	1061.2
2874.223	1084.2
2877.613	1088.2
2881	1082.2
2884.385	1099.2
2887.766	1090.2
2891.145	1088.2
2894.521	1083.2
2897.894	1084.2
2901.264	1077.2
2904.631	1066.2
2907.996	1081.2
2911.358	1074.2
2914.717	1081.2
2918.073	1097.2
2921.426	1107.2
2924.777	1126.2
2928.124	1123.2
2931.469	1141.2
2934.811	1165.2
2938.15	1182.2
2941.487	1212.2
2944.821	1191.2
2948.152	1177.2
2951.48	1183.2
2954.805	1164.2
2958.128	1162.2
2961.447	1155.2
2964.765	1146.2
2968.079	1149.2
2971.39	1156.2
2974.699	1178.2
2978.005	1187.2
2981.308	1208.2
2984.609	1230.2
2987.907	1239.2
2991.202	1251.2
2994.494	1313.2
2997.784	1322.2
3001.07	1351.2
3004.355	1374.2
3007.636	1378.2
3010.915	1395.2
3014.191	1391.2
3017.464	1413.2
3020.734	1435.2
3024.002	1444.2
3027.267	1435.2
3030.53	1469.2
3033.789	1475.2
3037.046	1500.2
3040.301	1508.2
3043.552	1545.2
3046.801	1585.2
3050.048	1608.2
3053.291	1630.2
3056.532	1682.2
3059.771	1727.2
3063.006	1774.2
3066.239	1831.2
3069.469	1881.2
3072.697	1939.2
3075.922	2005.2
3079.144	2031.2
3082.364	2074.2
3085.581	2128.2
3088.795	2184.2
3092.007	2198.2
3095.216	2247.2
3098.423	2281.2
3101.627	2359.2
3104.828	2424.2
3108.026	2453.2
3111.222	2510.2
3114.416	2576.2
3117.607	2648.2
3120.795	2710.2
3123.98	2737.2
3127.163	2830.2
3130.344	2918.2
3133.521	2952.2
3136.696	3022.2
3139.869	3072.2
3143.039	3126.2
3146.206	3181.2
3149.371	3193.2
3152.533	3263.2
3155.693	3244.2
3158.85	3307.2
3162.005	3320.2
3165.157	3308.2
3168.306	3296.2
3171.453	3324.2
3174.597	3327.2
3177.739	3354.2
3180.878	3334.2
3184.014	3347.2
3187.149	3324.2
3190.28	3355.2
3193.409	3344.2
3196.536	3356.2
3199.659	3356.2
3202.781	3366.2
3205.9	3375.2
3209.016	3366.2
3212.13	3357.2
3215.241	3281.2
3218.35	3299.2
3221.456	3261.2
3224.56	3215.2
3227.661	3173.2
3230.76	3141.2
3233.856	3121.2
3236.95	3078.2
3240.041	3062.2
3243.13	3019.2
3246.216	3013.2
3249.3	2967.2
3252.382	2986.2
3255.46	2953.2
3258.537	2927.2
3261.611	2965.2
3264.682	2943.2
3267.751	2951.2
3270.818	2939.2
3273.882	2928.2
3276.943	2905.2
3280.002	2874.2
3283.059	2864.2
3286.113	2833.2
3289.165	2792.2
3292.214	2744.2
3295.261	2683.2
3298.306	2662.2
3301.348	2603.2
3304.387	2569.2
3307.425	2534.2
3310.459	2502.2
3313.492	2453.2
3316.521	2436.2
3319.549	2405.2
3322.574	2387.2
3325.597	2356.2
3328.617	2344.2
3331.635	2342.2
3334.65	2332.2
3337.663	2302.2
3340.674	2291.2
3343.682	2292.2
3346.688	2279.2
3349.691	2268.2
3352.692	2246.2
3355.691	2224.2
3358.687	2217.2
3361.681	2201.2
3364.673	2157.2
3367.662	2124.2
3370.649	2086.2
3373.633	2083.2
3376.615	2034.2
3379.595	2002.2
3382.572	1976.2
3385.547	1939.2
3388.52	1925.2
3391.49	1879.2
3394.458	1863.2
3397.424	1828.2
3400.387	1797.2
3403.348	1768.2
3406.307	1759.2
3409.263	1748.2
3412.217	1721.2
3415.168	1700.2
3418.118	1681.2
3421.065	1647.2
3424.009	1622.2
3426.951	1592.2
3429.891	1563.2
3432.829	1535.2
3435.764	1486.2
3438.697	1466.2
3441.628	1418.2
3444.557	1367.2
3447.483	1336.2
3450.407	1309.2
3453.328	1248.2
3456.247	1217.2
3459.164	1179.2
3462.079	1121.2
3464.991	1079.2
3467.902	1041.2
3470.809	1001.2
3473.715	959.2
3476.618	918.2
3479.519	888.2
3482.418	861.2
3485.315	815.2
3488.209	785.2
3491.101	746.2
3493.99	734.2
3496.878	703.2
3499.763	672.2
3502.646	650.2
3505.527	614.2
3508.405	578.2
3511.281	533.2
3514.155	507.2
3517.027	484.2
3519.897	432.2
3522.764	395.2
3525.629	372.2
3528.492	340.2
3531.352	302.2
3534.211	267.2
3537.067	249.2
3539.921	220.2
3542.773	187.2
3545.622	155.2
3548.469	140.2
3551.315	115.2
3554.157	95.2
3556.998	52.2
3559.837	34.2
3562.673	35.2
3565.507	1.2
3568.339	-17.8
3571.169	-29.8
3573.996	-42.8
3576.822	-62.8
3579.645	-76.8
3582.466	-90.8
3585.285	-110.8
3588.101	-127.8
3590.916	-152.8
3593.728	-164.8
3596.538	-177.8
3599.346	-188.8
3602.152	-213.8
3604.956	-222.8
3607.757	-231.8
3610.556	-246.8
3613.354	-266.8
3616.149	-274.8
3618.942	-271.8
3621.732	-294.8
3624.521	-303.8
3627.307	-312.8
3630.092	-315.8
3632.874	-320.8
3635.654	-327.8
3638.432	-338.8
3641.208	-342.8
3643.982	-352.8
3646.753	-358.8
3649.523	-374.8
3652.29	-380.8
3655.055	-386.8
3657.818	-399.8
3660.579	-404.8
3663.338	-417.8
3666.095	-417.8
3668.849	-434.8
3671.602	-431.8
3674.352	-439.8
3677.101	-443.8
3679.847	-453.8
3682.591	-458.8
3685.333	-463.8
3688.073	-462.8
3690.811	-478.8
3693.547	-470.8
3696.281	-482.8
3699.013	-481.8
3701.742	-483.8
3704.47	-491.8
3707.195	-504.8
3709.919	-502.8
3712.64	-505.8
3715.359	-501.8
3718.076	-507.8
3720.792	-509.8
3723.505	-504.8
3726.216	-523.8
3728.925	-520.8
3731.632	-518.8
3734.336	-523.8
3737.039	-528.8
3739.74	-522.8
3742.439	-527.8
3745.136	-536.8
3747.83	-536.8
3750.523	-534.8
3753.213	-524.8
3755.902	-537.8
3758.589	-536.8
3761.273	-540.8
3763.956	-542.8
3766.636	-545.8
3769.315	-549.8
3771.991	-544.8
3774.665	-554.8
3777.338	-547.8
3780.008	-551.8
3782.677	-557.8
3785.343	-557.8
3788.007	-551.8
3790.67	-560.8
3793.33	-562.8
3795.989	-558.8
3798.645	-556.8
3801.299	-556.8
3803.952	-561.8
3806.602	-567.8
3809.251	-568.8
3811.897	-567.8
3814.542	-567.8
3817.184	-564.8
3819.825	-562.8
3822.463	-557.8
3825.1	-575.8
3827.735	-565.8
3830.367	-563.8
3832.998	-571.8
3835.627	-576.8
3838.253	-575.8
3840.878	-579.8
3843.501	-574.8
3846.122	-569.8
3848.741	-570.8
3851.358	-569.8
3853.973	-569.8
3856.586	-574.8
3859.197	-574.8
3861.806	-579.8
3864.414	-574.8
3867.019	-575.8
3869.622	-577.8
3872.224	-577.8
3874.823	-561.8
3877.421	-539.8
3880.016	-530.8
3882.61	-503.8
3885.202	-499.8
3887.792	-510.8
3890.38	-543.8
3892.966	-556.8
3895.55	-575.8
3898.132	-587.8
3900.713	-588.8
3903.291	-577.8
3905.868	-587.8
3908.442	-586.8
3911.015	-588.8
3913.586	-579.8
3916.155	-585.8
3918.722	-587.8
3921.287	-588.8
3923.85	-595.8
3926.411	-588.8
3928.971	-598.8
3931.528	-592.8
3934.084	-587.8
3936.638	-583.8
3939.19	-587.8
3941.74	-584.8
3944.288	-590.8
3946.834	-581.8
3949.378	-591.8
3951.921	-589.8
3954.462	-591.8
3957	-585.8
3959.537	-591.8
3962.072	-588.8
3964.606	-586.8
3967.137	-588.8
3969.667	-591.8
3972.194	-579.8
3974.72	-591.8
3977.244	-579.8
3979.766	-580.8
3982.286	-583.8
3984.805	-580.8
3987.321	-576.8
3989.836	-575.8
3992.349	-568.8
3994.86	-570.8
3997.369	-577.8
3999.877	-575.8
4002.382	-570.8
4004.886	-570.8
4007.388	-573.8
4009.888	-574.8
4012.386	-575.8
4014.883	-573.8
4017.377	-571.8
4019.87	-575.8
4022.361	-577.8
4024.85	-575.8
4027.338	-576.8
4029.823	-577.8
4032.307	-576.8
4034.789	-568.8
4037.269	-574.8
4039.747	-577.8
4042.224	-576.8
4044.699	-581.8
4047.172	-581.8
4049.643	-578.8
4052.112	-584.8
4054.58	-585.8
4057.046	-582.8
4059.51	-580.8
4061.972	-577.8
4064.432	-578.8
4066.891	-575.8
4069.348	-574.8
4071.803	-576.8
4074.256	-577.8
4076.708	-569.8
4079.158	-576.8
4081.606	-582.8
4084.052	-580.8
4086.497	-578.8
4088.939	-573.8
4091.38	-579.8
4093.819	-574.8
4096.257	-609.8
4098.693	-609.8
4101.127	-612.8
4103.559	-606.8
4105.989	-344.8
4108.418	-319.8
4110.845	-298.8
4113.27	-267.8
4115.694	-238.8
4118.115	-206.8
4120.535	-573.8
4122.954	-573.8
4125.37	-570.8
4127.785	-579.8
4130.198	-576.8
4132.609	-578.8
4135.019	-609.8
4137.427	-607.8
4139.833	-613.8
4142.237	-605.8
