Data from 2018-2-14_conc=6_n=4_RamanShift_03.txt Node
Date: Wed Feb 14 14:53:55 IST 2018
User: aro
Spectrometer: QEPB0276
Trigger mode: 0
Integration Time (sec): 3.000000E1
Scans to average: 1
Electric dark correction enabled: true
Nonlinearity correction enabled: false
Boxcar width: 0
XAxis mode: Raman Shifts
Number of Pixels in Spectrum: 1044
>>>>>Begin Spectral Data<<<<<
160.701	-145.9
166.742	50.1
172.777	596.1
178.805	2249.1
184.826	6232.1
190.841	13110.1
196.849	21070.1
202.85	26826.1
208.845	28722.1
214.833	28470.1
220.815	28034.1
226.789	27786.1
232.758	27741.1
238.719	27497.1
244.674	27111.1
250.623	26647.1
256.565	26130.1
262.5	25619.1
268.429	25154.1
274.351	24772.1
280.267	24460.1
286.176	24223.1
292.079	23971.1
297.975	23727.1
303.865	23547.1
309.748	23447.1
315.625	23228.1
321.495	23211.1
327.359	23109.1
333.217	23056.1
339.068	23064.1
344.912	23009.1
350.751	23022.1
356.583	22971.1
362.408	22987.1
368.227	23043.1
374.04	23043.1
379.847	23045.1
385.647	23116.1
391.44	23206.1
397.228	23345.1
403.009	23354.1
408.784	23459.1
414.553	23550.1
420.315	23599.1
426.071	23667.1
431.821	23672.1
437.565	23674.1
443.302	23550.1
449.033	23542.1
454.758	23417.1
460.477	23381.1
466.189	23358.1
471.896	23290.1
477.596	23243.1
483.29	23228.1
488.978	23127.1
494.66	23066.1
500.335	22893.1
506.005	22700.1
511.668	22374.1
517.325	22120.1
522.977	21882.1
528.622	21737.1
534.261	21542.1
539.894	21437.1
545.521	21315.1
551.141	21260.1
556.756	21193.1
562.365	21133.1
567.968	21027.1
573.565	20924.1
579.155	20825.1
584.74	20751.1
590.319	20710.1
595.892	20564.1
601.459	20462.1
607.02	20401.1
612.575	20268.1
618.124	20115.1
623.667	19986.1
629.204	19979.1
634.735	19813.1
640.261	19735.1
645.781	19655.1
651.294	19613.1
656.802	19625.1
662.304	19605.1
667.8	19489.1
673.29	19476.1
678.775	19477.1
684.254	19427.1
689.726	19325.1
695.193	19266.1
700.655	19218.1
706.11	19060.1
711.56	18973.1
717.004	18871.1
722.442	18738.1
727.874	18706.1
733.301	18627.1
738.722	18595.1
744.137	18514.1
749.547	18522.1
754.951	18549.1
760.349	18518.1
765.741	18531.1
771.128	18584.1
776.509	18556.1
781.885	18598.1
787.254	18546.1
792.618	18417.1
797.977	18338.1
803.33	18231.1
808.677	18124.1
814.019	17981.1
819.355	17934.1
824.686	17843.1
830.011	17732.1
835.33	17768.1
840.644	17808.1
845.952	17822.1
851.255	17794.1
856.552	17827.1
861.844	17816.1
867.13	17739.1
872.41	17699.1
877.686	17574.1
882.955	17485.1
888.219	17281.1
893.478	17076.1
898.731	16845.1
903.979	16713.1
909.221	16614.1
914.458	16547.1
919.69	16508.1
924.916	16554.1
930.136	16616.1
935.351	16639.1
940.561	16599.1
945.766	16595.1
950.965	16537.1
956.158	16409.1
961.347	16183.1
966.529	16026.1
971.707	15770.1
976.879	15560.1
982.046	15457.1
987.208	15372.1
992.364	15442.1
997.515	15517.1
1002.66	15650.1
1007.801	15824.1
1012.936	15882.1
1018.066	15905.1
1023.19	15869.1
1028.309	15886.1
1033.423	15872.1
1038.532	15812.1
1043.636	15647.1
1048.734	15395.1
1053.827	15278.1
1058.915	15158.1
1063.998	14975.1
1069.075	14935.1
1074.147	14941.1
1079.214	14995.1
1084.276	15056.1
1089.333	15192.1
1094.385	15169.1
1099.431	15330.1
1104.472	15251.1
1109.509	15149.1
1114.54	15006.1
1119.565	14804.1
1124.586	14632.1
1129.602	14430.1
1134.613	14337.1
1139.618	14287.1
1144.619	14205.1
1149.614	14214.1
1154.604	14243.1
1159.589	14257.1
1164.57	14268.1
1169.545	14329.1
1174.515	14339.1
1179.48	14240.1
1184.44	14136.1
1189.395	14042.1
1194.345	13910.1
1199.29	13865.1
1204.23	13877.1
1209.165	13920.1
1214.095	13981.1
1219.021	14028.1
1223.941	14114.1
1228.856	14134.1
1233.766	14233.1
1238.672	14216.1
1243.572	14219.1
1248.467	14138.1
1253.358	13961.1
1258.244	13788.1
1263.124	13540.1
1268	13333.1
1272.871	13189.1
1277.737	13086.1
1282.599	13001.1
1287.455	13015.1
1292.306	13016.1
1297.153	13025.1
1301.995	13108.1
1306.832	13166.1
1311.664	13126.1
1316.491	13094.1
1321.314	12990.1
1326.132	12780.1
1330.945	12486.1
1335.753	12244.1
1340.556	11911.1
1345.354	11658.1
1350.148	11514.1
1354.937	11417.1
1359.722	11386.1
1364.501	11426.1
1369.276	11482.1
1374.046	11616.1
1378.811	11746.1
1383.572	11836.1
1388.327	11908.1
1393.079	11893.1
1397.825	11726.1
1402.567	11573.1
1407.304	11459.1
1412.036	11291.1
1416.764	11280.1
1421.487	11194.1
1426.205	11136.1
1430.919	11089.1
1435.628	11092.1
1440.333	11082.1
1445.032	11141.1
1449.727	11170.1
1454.418	11126.1
1459.104	11005.1
1463.785	10822.1
1468.462	10607.1
1473.134	10336.1
1477.802	10137.1
1482.465	9968.1
1487.123	9860.1
1491.777	9791.1
1496.426	9859.1
1501.071	9928.1
1505.711	10037.1
1510.347	10234.1
1514.978	10383.1
1519.604	10498.1
1524.226	10574.1
1528.844	10623.1
1533.457	10562.1
1538.065	10566.1
1542.669	10475.1
1547.269	10355.1
1551.864	10373.1
1556.454	10320.1
1561.041	10298.1
1565.622	10319.1
1570.199	10302.1
1574.772	10380.1
1579.34	10461.1
1583.904	10465.1
1588.464	10535.1
1593.019	10551.1
1597.569	10523.1
1602.115	10449.1
1606.657	10415.1
1611.195	10317.1
1615.728	10260.1
1620.256	10225.1
1624.78	10195.1
1629.3	10186.1
1633.816	10271.1
1638.327	10301.1
1642.834	10299.1
1647.336	10364.1
1651.834	10392.1
1656.328	10354.1
1660.817	10248.1
1665.302	10167.1
1669.783	9968.1
1674.259	9696.1
1678.732	9459.1
1683.199	9140.1
1687.663	8788.1
1692.122	8545.1
1696.577	8421.1
1701.028	8319.1
1705.474	8400.1
1709.917	8420.1
1714.355	8473.1
1718.788	8462.1
1723.218	8310.1
1727.643	8181.1
1732.064	8000.1
1736.481	7856.1
1740.893	7646.1
1745.301	7444.1
1749.705	7231.1
1754.105	7055.1
1758.501	6809.1
1762.893	6654.1
1767.28	6486.1
1771.663	6357.1
1776.042	6271.1
1780.417	6193.1
1784.787	6171.1
1789.154	6223.1
1793.516	6357.1
1797.874	6430.1
1802.228	6541.1
1806.578	6588.1
1810.924	6579.1
1815.266	6461.1
1819.603	6434.1
1823.937	6309.1
1828.266	6244.1
1832.591	6139.1
1836.913	6086.1
1841.23	5999.1
1845.543	5995.1
1849.852	5952.1
1854.156	5928.1
1858.457	5914.1
1862.754	5852.1
1867.047	5888.1
1871.335	5891.1
1875.62	5876.1
1879.9	5824.1
1884.177	5795.1
1888.449	5732.1
1892.718	5676.1
1896.982	5674.1
1901.243	5582.1
1905.499	5532.1
1909.752	5498.1
1914	5533.1
1918.245	5485.1
1922.485	5536.1
1926.722	5604.1
1930.954	5616.1
1935.183	5715.1
1939.408	5774.1
1943.628	5770.1
1947.845	5779.1
1952.058	5776.1
1956.267	5730.1
1960.472	5667.1
1964.673	5554.1
1968.87	5487.1
1973.063	5409.1
1977.252	5333.1
1981.438	5276.1
1985.619	5227.1
1989.797	5163.1
1993.971	5172.1
1998.14	5128.1
2002.306	5113.1
2006.469	5126.1
2010.627	5059.1
2014.781	5021.1
2018.932	4998.1
2023.078	4966.1
2027.221	4877.1
2031.36	4812.1
2035.495	4692.1
2039.627	4652.1
2043.754	4608.1
2047.878	4534.1
2051.998	4511.1
2056.114	4497.1
2060.226	4502.1
2064.334	4506.1
2068.439	4502.1
2072.54	4519.1
2076.637	4570.1
2080.73	4632.1
2084.82	4579.1
2088.906	4609.1
2092.988	4650.1
2097.066	4610.1
2101.14	4561.1
2105.211	4522.1
2109.278	4518.1
2113.342	4572.1
2117.401	4542.1
2121.457	4455.1
2125.509	4419.1
2129.558	4366.1
2133.602	4330.1
2137.643	4343.1
2141.681	4312.1
2145.714	4296.1
2149.744	4249.1
2153.77	4223.1
2157.793	4205.1
2161.812	4117.1
2165.827	4087.1
2169.838	4031.1
2173.846	3961.1
2177.851	3868.1
2181.851	3841.1
2185.848	3797.1
2189.841	3740.1
2193.831	3698.1
2197.817	3640.1
2201.799	3667.1
2205.778	3644.1
2209.753	3628.1
2213.725	3592.1
2217.693	3592.1
2221.657	3584.1
2225.618	3598.1
2229.575	3560.1
2233.529	3534.1
2237.479	3486.1
2241.425	3481.1
2245.368	3408.1
2249.307	3361.1
2253.243	3302.1
2257.175	3274.1
2261.104	3228.1
2265.029	3172.1
2268.95	3137.1
2272.868	3092.1
2276.783	3088.1
2280.694	3024.1
2284.601	3020.1
2288.505	2980.1
2292.405	2944.1
2296.302	2905.1
2300.195	2909.1
2304.085	2842.1
2307.971	2813.1
2311.854	2770.1
2315.734	2740.1
2319.609	2682.1
2323.482	2647.1
2327.351	2639.1
2331.216	2638.1
2335.078	2612.1
2338.937	2572.1
2342.792	2557.1
2346.643	2524.1
2350.492	2541.1
2354.336	2545.1
2358.178	2554.1
2362.015	2558.1
2365.85	2567.1
2369.681	2563.1
2373.508	2594.1
2377.333	2568.1
2381.153	2569.1
2384.971	2564.1
2388.785	2533.1
2392.595	2499.1
2396.402	2486.1
2400.206	2456.1
2404.007	2450.1
2407.804	2432.1
2411.597	2398.1
2415.388	2383.1
2419.174	2370.1
2422.958	2356.1
2426.738	2353.1
2430.515	2309.1
2434.289	2286.1
2438.059	2291.1
2441.825	2273.1
2445.589	2251.1
2449.349	2219.1
2453.106	2176.1
2456.859	2163.1
2460.61	2112.1
2464.356	2090.1
2468.1	2055.1
2471.84	2064.1
2475.577	2022.1
2479.311	2018.1
2483.041	2024.1
2486.768	2014.1
2490.492	2011.1
2494.213	1990.1
2497.93	1966.1
2501.644	1978.1
2505.355	1979.1
2509.062	1946.1
2512.766	1936.1
2516.467	1923.1
2520.165	1895.1
2523.859	1872.1
2527.551	1878.1
2531.239	1886.1
2534.923	1839.1
2538.605	1839.1
2542.283	1819.1
2545.958	1821.1
2549.63	1810.1
2553.299	1824.1
2556.964	1810.1
2560.626	1791.1
2564.285	1804.1
2567.941	1797.1
2571.594	1772.1
2575.243	1769.1
2578.89	1753.1
2582.533	1726.1
2586.173	1719.1
2589.809	1709.1
2593.443	1686.1
2597.073	1669.1
2600.701	1669.1
2604.325	1656.1
2607.946	1633.1
2611.564	1632.1
2615.178	1611.1
2618.79	1583.1
2622.398	1562.1
2626.004	1573.1
2629.606	1547.1
2633.205	1502.1
2636.801	1475.1
2640.394	1492.1
2643.983	1434.1
2647.57	1416.1
2651.153	1419.1
2654.734	1389.1
2658.311	1362.1
2661.885	1344.1
2665.456	1332.1
2669.025	1299.1
2672.589	1288.1
2676.151	1266.1
2679.71	1278.1
2683.266	1244.1
2686.819	1221.1
2690.368	1209.1
2693.915	1178.1
2697.458	1145.1
2700.999	1107.1
2704.536	1077.1
2708.071	1047.1
2711.602	1013.1
2715.13	1022.1
2718.656	993.1
2722.178	986.1
2725.697	968.1
2729.214	941.1
2732.727	948.1
2736.237	939.1
2739.744	916.1
2743.249	947.1
2746.75	951.1
2750.248	943.1
2753.743	946.1
2757.236	976.1
2760.725	969.1
2764.211	979.1
2767.695	983.1
2771.175	955.1
2774.652	959.1
2778.127	965.1
2781.598	956.1
2785.067	952.1
2788.532	933.1
2791.995	942.1
2795.455	950.1
2798.911	962.1
2802.365	946.1
2805.816	930.1
2809.264	949.1
2812.709	949.1
2816.151	949.1
2819.59	960.1
2823.026	939.1
2826.46	955.1
2829.89	959.1
2833.318	957.1
2836.742	968.1
2840.164	972.1
2843.583	968.1
2846.999	986.1
2850.412	998.1
2853.822	1012.1
2857.229	1023.1
2860.634	1044.1
2864.035	1065.1
2867.434	1060.1
2870.83	1105.1
2874.223	1116.1
2877.613	1137.1
2881	1153.1
2884.385	1163.1
2887.766	1159.1
2891.145	1153.1
2894.521	1169.1
2897.894	1163.1
2901.264	1153.1
2904.631	1172.1
2907.996	1174.1
2911.358	1179.1
2914.717	1190.1
2918.073	1191.1
2921.426	1222.1
2924.777	1213.1
2928.124	1247.1
2931.469	1266.1
2934.811	1288.1
2938.15	1305.1
2941.487	1298.1
2944.821	1324.1
2948.152	1324.1
2951.48	1319.1
2954.805	1288.1
2958.128	1281.1
2961.447	1281.1
2964.765	1279.1
2968.079	1279.1
2971.39	1266.1
2974.699	1290.1
2978.005	1336.1
2981.308	1345.1
2984.609	1350.1
2987.907	1392.1
2991.202	1416.1
2994.494	1444.1
2997.784	1476.1
3001.07	1495.1
3004.355	1526.1
3007.636	1532.1
3010.915	1562.1
3014.191	1570.1
3017.464	1579.1
3020.734	1619.1
3024.002	1625.1
3027.267	1630.1
3030.53	1636.1
3033.789	1657.1
3037.046	1703.1
3040.301	1730.1
3043.552	1749.1
3046.801	1808.1
3050.048	1850.1
3053.291	1905.1
3056.532	1945.1
3059.771	1986.1
3063.006	2051.1
3066.239	2121.1
3069.469	2185.1
3072.697	2235.1
3075.922	2297.1
3079.144	2358.1
3082.364	2418.1
3085.581	2458.1
3088.795	2517.1
3092.007	2580.1
3095.216	2620.1
3098.423	2675.1
3101.627	2747.1
3104.828	2811.1
3108.026	2859.1
3111.222	2896.1
3114.416	2968.1
3117.607	3043.1
3120.795	3107.1
3123.98	3189.1
3127.163	3248.1
3130.344	3336.1
3133.521	3420.1
3136.696	3514.1
3139.869	3594.1
3143.039	3635.1
3146.206	3679.1
3149.371	3736.1
3152.533	3757.1
3155.693	3782.1
3158.85	3829.1
3162.005	3852.1
3165.157	3859.1
3168.306	3857.1
3171.453	3886.1
3174.597	3882.1
3177.739	3901.1
3180.878	3901.1
3184.014	3925.1
3187.149	3893.1
3190.28	3931.1
3193.409	3917.1
3196.536	3926.1
3199.659	3930.1
3202.781	3957.1
3205.9	3937.1
3209.016	3934.1
3212.13	3898.1
3215.241	3868.1
3218.35	3831.1
3221.456	3767.1
3224.56	3764.1
3227.661	3686.1
3230.76	3644.1
3233.856	3610.1
3236.95	3593.1
3240.041	3539.1
3243.13	3504.1
3246.216	3482.1
3249.3	3433.1
3252.382	3463.1
3255.46	3422.1
3258.537	3364.1
3261.611	3418.1
3264.682	3406.1
3267.751	3376.1
3270.818	3421.1
3273.882	3392.1
3276.943	3396.1
3280.002	3378.1
3283.059	3340.1
3286.113	3301.1
3289.165	3258.1
3292.214	3194.1
3295.261	3159.1
3298.306	3119.1
3301.348	3064.1
3304.387	3014.1
3307.425	2973.1
3310.459	2971.1
3313.492	2902.1
3316.521	2849.1
3319.549	2837.1
3322.574	2778.1
3325.597	2797.1
3328.617	2792.1
3331.635	2754.1
3334.65	2735.1
3337.663	2747.1
3340.674	2703.1
3343.682	2680.1
3346.688	2688.1
3349.691	2689.1
3352.692	2683.1
3355.691	2649.1
3358.687	2633.1
3361.681	2603.1
3364.673	2526.1
3367.662	2486.1
3370.649	2484.1
3373.633	2443.1
3376.615	2413.1
3379.595	2370.1
3382.572	2344.1
3385.547	2314.1
3388.52	2290.1
3391.49	2246.1
3394.458	2206.1
3397.424	2156.1
3400.387	2155.1
3403.348	2116.1
3406.307	2072.1
3409.263	2067.1
3412.217	2028.1
3415.168	1999.1
3418.118	1986.1
3421.065	1947.1
3424.009	1933.1
3426.951	1888.1
3429.891	1865.1
3432.829	1828.1
3435.764	1778.1
3438.697	1738.1
3441.628	1671.1
3444.557	1640.1
3447.483	1558.1
3450.407	1526.1
3453.328	1472.1
3456.247	1442.1
3459.164	1355.1
3462.079	1307.1
3464.991	1271.1
3467.902	1227.1
3470.809	1161.1
3473.715	1104.1
3476.618	1078.1
3479.519	1045.1
3482.418	996.1
3485.315	969.1
3488.209	924.1
3491.101	898.1
3493.99	848.1
3496.878	810.1
3499.763	786.1
3502.646	762.1
3505.527	715.1
3508.405	673.1
3511.281	632.1
3514.155	607.1
3517.027	562.1
3519.897	534.1
3522.764	474.1
3525.629	450.1
3528.492	391.1
3531.352	357.1
3534.211	329.1
3537.067	296.1
3539.921	259.1
3542.773	216.1
3545.622	201.1
3548.469	175.1
3551.315	148.1
3554.157	125.1
3556.998	79.1
3559.837	55.1
3562.673	44.1
3565.507	17.1
3568.339	0.1
3571.169	-26.9
3573.996	-44.9
3576.822	-63.9
3579.645	-71.9
3582.466	-113.9
3585.285	-117.9
3588.101	-136.9
3590.916	-154.9
3593.728	-182.9
3596.538	-193.9
3599.346	-218.9
3602.152	-229.9
3604.956	-231.9
3607.757	-256.9
3610.556	-273.9
3613.354	-287.9
3616.149	-299.9
3618.942	-302.9
3621.732	-313.9
3624.521	-333.9
3627.307	-340.9
3630.092	-348.9
3632.874	-369.9
3635.654	-369.9
3638.432	-371.9
3641.208	-382.9
3643.982	-397.9
3646.753	-398.9
3649.523	-410.9
3652.29	-418.9
3655.055	-416.9
3657.818	-431.9
3660.579	-449.9
3663.338	-465.9
3666.095	-470.9
3668.849	-485.9
3671.602	-490.9
3674.352	-495.9
3677.101	-503.9
3679.847	-514.9
3682.591	-517.9
3685.333	-519.9
3688.073	-513.9
3690.811	-528.9
3693.547	-524.9
3696.281	-538.9
3699.013	-541.9
3701.742	-541.9
3704.47	-547.9
3707.195	-558.9
3709.919	-557.9
3712.64	-570.9
3715.359	-564.9
3718.076	-567.9
3720.792	-574.9
3723.505	-577.9
3726.216	-584.9
3728.925	-576.9
3731.632	-588.9
3734.336	-591.9
3737.039	-598.9
3739.74	-595.9
3742.439	-600.9
3745.136	-602.9
3747.83	-606.9
3750.523	-606.9
3753.213	-603.9
3755.902	-616.9
3758.589	-613.9
3761.273	-616.9
3763.956	-616.9
3766.636	-614.9
3769.315	-621.9
3771.991	-623.9
3774.665	-625.9
3777.338	-624.9
3780.008	-620.9
3782.677	-629.9
3785.343	-621.9
3788.007	-625.9
3790.67	-625.9
3793.33	-628.9
3795.989	-630.9
3798.645	-631.9
3801.299	-631.9
3803.952	-636.9
3806.602	-641.9
3809.251	-640.9
3811.897	-637.9
3814.542	-638.9
3817.184	-632.9
3819.825	-641.9
3822.463	-634.9
3825.1	-640.9
3827.735	-637.9
3830.367	-639.9
3832.998	-651.9
3835.627	-648.9
3838.253	-649.9
3840.878	-653.9
3843.501	-649.9
3846.122	-646.9
3848.741	-645.9
3851.358	-646.9
3853.973	-645.9
3856.586	-649.9
3859.197	-648.9
3861.806	-654.9
3864.414	-643.9
3867.019	-647.9
3869.622	-649.9
3872.224	-644.9
3874.823	-628.9
3877.421	-615.9
3880.016	-598.9
3882.61	-572.9
3885.202	-571.9
3887.792	-591.9
3890.38	-621.9
3892.966	-640.9
3895.55	-648.9
3898.132	-661.9
3900.713	-669.9
3903.291	-661.9
3905.868	-662.9
3908.442	-664.9
3911.015	-665.9
3913.586	-654.9
3916.155	-661.9
3918.722	-661.9
3921.287	-659.9
3923.85	-663.9
3926.411	-664.9
3928.971	-673.9
3931.528	-669.9
3934.084	-666.9
3936.638	-666.9
3939.19	-661.9
3941.74	-664.9
3944.288	-673.9
3946.834	-666.9
3949.378	-672.9
3951.921	-671.9
3954.462	-674.9
3957	-665.9
3959.537	-665.9
3962.072	-665.9
3964.606	-668.9
3967.137	-666.9
3969.667	-667.9
3972.194	-655.9
3974.72	-660.9
3977.244	-654.9
3979.766	-652.9
3982.286	-651.9
3984.805	-649.9
3987.321	-647.9
3989.836	-653.9
3992.349	-640.9
3994.86	-652.9
3997.369	-650.9
3999.877	-645.9
4002.382	-648.9
4004.886	-646.9
4007.388	-648.9
4009.888	-650.9
4012.386	-653.9
4014.883	-649.9
4017.377	-646.9
4019.87	-649.9
4022.361	-647.9
4024.85	-653.9
4027.338	-652.9
4029.823	-653.9
4032.307	-654.9
4034.789	-654.9
4037.269	-652.9
4039.747	-653.9
4042.224	-652.9
4044.699	-654.9
4047.172	-648.9
4049.643	-647.9
4052.112	-657.9
4054.58	-653.9
4057.046	-651.9
4059.51	-660.9
4061.972	-652.9
4064.432	-655.9
4066.891	-652.9
4069.348	-649.9
4071.803	-646.9
4074.256	-652.9
4076.708	-654.9
4079.158	-657.9
4081.606	-657.9
4084.052	-658.9
4086.497	-654.9
4088.939	-649.9
4091.38	-651.9
4093.819	-653.9
4096.257	-682.9
4098.693	-683.9
4101.127	-688.9
4103.559	-683.9
4105.989	-400.9
4108.418	-378.9
4110.845	-353.9
4113.27	-320.9
4115.694	-285.9
4118.115	-241.9
4120.535	-652.9
4122.954	-654.9
4125.37	-646.9
4127.785	-650.9
4130.198	-652.9
4132.609	-658.9
4135.019	-686.9
4137.427	-688.9
4139.833	-688.9
4142.237	-684.9
