Data from 2018-2-14_conc=6_n=5_RamanShift_04.txt Node
Date: Wed Feb 14 14:59:25 IST 2018
User: aro
Spectrometer: QEPB0276
Trigger mode: 0
Integration Time (sec): 3.000000E1
Scans to average: 1
Electric dark correction enabled: true
Nonlinearity correction enabled: false
Boxcar width: 0
XAxis mode: Raman Shifts
Number of Pixels in Spectrum: 1044
>>>>>Begin Spectral Data<<<<<
160.701	-149.4
166.742	44.6
172.777	592.6
178.805	2289.6
184.826	6321.6
190.841	13385.6
196.849	21548.6
202.85	27343.6
208.845	29358.6
214.833	29058.6
220.815	28606.6
226.789	28434.6
232.758	28393.6
238.719	28170.6
244.674	27785.6
250.623	27311.6
256.565	26822.6
262.5	26219.6
268.429	25771.6
274.351	25403.6
280.267	25061.6
286.176	24735.6
292.079	24627.6
297.975	24342.6
303.865	24188.6
309.748	24032.6
315.625	23911.6
321.495	23779.6
327.359	23659.6
333.217	23643.6
339.068	23636.6
344.912	23617.6
350.751	23574.6
356.583	23535.6
362.408	23584.6
368.227	23547.6
374.04	23577.6
379.847	23645.6
385.647	23707.6
391.44	23775.6
397.228	23914.6
403.009	24006.6
408.784	24013.6
414.553	24173.6
420.315	24205.6
426.071	24220.6
431.821	24247.6
437.565	24140.6
443.302	24183.6
449.033	24053.6
454.758	24028.6
460.477	23965.6
466.189	23946.6
471.896	23855.6
477.596	23850.6
483.29	23791.6
488.978	23706.6
494.66	23613.6
500.335	23488.6
506.005	23248.6
511.668	22940.6
517.325	22658.6
522.977	22434.6
528.622	22304.6
534.261	22071.6
539.894	22034.6
545.521	21857.6
551.141	21830.6
556.756	21809.6
562.365	21639.6
567.968	21625.6
573.565	21506.6
579.155	21401.6
584.74	21370.6
590.319	21310.6
595.892	21165.6
601.459	21066.6
607.02	20979.6
612.575	20883.6
618.124	20788.6
623.667	20626.6
629.204	20555.6
634.735	20398.6
640.261	20312.6
645.781	20232.6
651.294	20207.6
656.802	20209.6
662.304	20141.6
667.8	20152.6
673.29	20104.6
678.775	20054.6
684.254	19951.6
689.726	19881.6
695.193	19804.6
700.655	19749.6
706.11	19648.6
711.56	19515.6
717.004	19454.6
722.442	19280.6
727.874	19223.6
733.301	19203.6
738.722	19150.6
744.137	19118.6
749.547	19148.6
754.951	19094.6
760.349	19061.6
765.741	19089.6
771.128	19117.6
776.509	19143.6
781.885	19123.6
787.254	19068.6
792.618	19013.6
797.977	18863.6
803.33	18701.6
808.677	18614.6
814.019	18560.6
819.355	18439.6
824.686	18362.6
830.011	18313.6
835.33	18299.6
840.644	18307.6
845.952	18336.6
851.255	18369.6
856.552	18351.6
861.844	18343.6
867.13	18259.6
872.41	18277.6
877.686	18134.6
882.955	17959.6
888.219	17786.6
893.478	17595.6
898.731	17476.6
903.979	17278.6
909.221	17105.6
914.458	17009.6
919.69	16989.6
924.916	17041.6
930.136	17099.6
935.351	17148.6
940.561	17153.6
945.766	17063.6
950.965	16981.6
956.158	16856.6
961.347	16747.6
966.529	16521.6
971.707	16298.6
976.879	16089.6
982.046	15934.6
987.208	15885.6
992.364	15914.6
997.515	15971.6
1002.66	16129.6
1007.801	16318.6
1012.936	16418.6
1018.066	16401.6
1023.19	16418.6
1028.309	16417.6
1033.423	16345.6
1038.532	16303.6
1043.636	16136.6
1048.734	15972.6
1053.827	15733.6
1058.915	15630.6
1063.998	15451.6
1069.075	15406.6
1074.147	15449.6
1079.214	15488.6
1084.276	15589.6
1089.333	15648.6
1094.385	15724.6
1099.431	15781.6
1104.472	15770.6
1109.509	15667.6
1114.54	15455.6
1119.565	15280.6
1124.586	15091.6
1129.602	14915.6
1134.613	14872.6
1139.618	14733.6
1144.619	14731.6
1149.614	14708.6
1154.604	14720.6
1159.589	14780.6
1164.57	14764.6
1169.545	14784.6
1174.515	14820.6
1179.48	14705.6
1184.44	14649.6
1189.395	14469.6
1194.345	14399.6
1199.29	14328.6
1204.23	14335.6
1209.165	14338.6
1214.095	14483.6
1219.021	14509.6
1223.941	14561.6
1228.856	14670.6
1233.766	14710.6
1238.672	14697.6
1243.572	14688.6
1248.467	14664.6
1253.358	14441.6
1258.244	14230.6
1263.124	14017.6
1268	13830.6
1272.871	13623.6
1277.737	13553.6
1282.599	13423.6
1287.455	13436.6
1292.306	13481.6
1297.153	13498.6
1301.995	13507.6
1306.832	13622.6
1311.664	13622.6
1316.491	13547.6
1321.314	13416.6
1326.132	13278.6
1330.945	12949.6
1335.753	12636.6
1340.556	12306.6
1345.354	12072.6
1350.148	11825.6
1354.937	11743.6
1359.722	11699.6
1364.501	11727.6
1369.276	11859.6
1374.046	11986.6
1378.811	12170.6
1383.572	12310.6
1388.327	12314.6
1393.079	12321.6
1397.825	12171.6
1402.567	11979.6
1407.304	11818.6
1412.036	11745.6
1416.764	11653.6
1421.487	11574.6
1426.205	11558.6
1430.919	11505.6
1435.628	11495.6
1440.333	11506.6
1445.032	11516.6
1449.727	11555.6
1454.418	11542.6
1459.104	11377.6
1463.785	11156.6
1468.462	10898.6
1473.134	10655.6
1477.802	10416.6
1482.465	10257.6
1487.123	10080.6
1491.777	10116.6
1496.426	10074.6
1501.071	10167.6
1505.711	10362.6
1510.347	10449.6
1514.978	10675.6
1519.604	10792.6
1524.226	10952.6
1528.844	10954.6
1533.457	10951.6
1538.065	10878.6
1542.669	10822.6
1547.269	10735.6
1551.864	10705.6
1556.454	10656.6
1561.041	10621.6
1565.622	10670.6
1570.199	10678.6
1574.772	10709.6
1579.34	10787.6
1583.904	10862.6
1588.464	10934.6
1593.019	10915.6
1597.569	10883.6
1602.115	10836.6
1606.657	10742.6
1611.195	10675.6
1615.728	10620.6
1620.256	10588.6
1624.78	10529.6
1629.3	10517.6
1633.816	10553.6
1638.327	10613.6
1642.834	10618.6
1647.336	10659.6
1651.834	10693.6
1656.328	10611.6
1660.817	10570.6
1665.302	10475.6
1669.783	10275.6
1674.259	9982.6
1678.732	9690.6
1683.199	9405.6
1687.663	9043.6
1692.122	8782.6
1696.577	8548.6
1701.028	8526.6
1705.474	8608.6
1709.917	8668.6
1714.355	8666.6
1718.788	8657.6
1723.218	8562.6
1727.643	8379.6
1732.064	8244.6
1736.481	8114.6
1740.893	7876.6
1745.301	7656.6
1749.705	7496.6
1754.105	7289.6
1758.501	7045.6
1762.893	6833.6
1767.28	6680.6
1771.663	6523.6
1776.042	6386.6
1780.417	6313.6
1784.787	6327.6
1789.154	6362.6
1793.516	6447.6
1797.874	6563.6
1802.228	6687.6
1806.578	6739.6
1810.924	6748.6
1815.266	6670.6
1819.603	6624.6
1823.937	6521.6
1828.266	6435.6
1832.591	6349.6
1836.913	6242.6
1841.23	6215.6
1845.543	6131.6
1849.852	6120.6
1854.156	6097.6
1858.457	6083.6
1862.754	6044.6
1867.047	6083.6
1871.335	6080.6
1875.62	6040.6
1879.9	5997.6
1884.177	5936.6
1888.449	5906.6
1892.718	5829.6
1896.982	5747.6
1901.243	5682.6
1905.499	5615.6
1909.752	5590.6
1914	5591.6
1918.245	5611.6
1922.485	5617.6
1926.722	5715.6
1930.954	5774.6
1935.183	5852.6
1939.408	5885.6
1943.628	5924.6
1947.845	5956.6
1952.058	5915.6
1956.267	5864.6
1960.472	5820.6
1964.673	5746.6
1968.87	5630.6
1973.063	5565.6
1977.252	5474.6
1981.438	5418.6
1985.619	5404.6
1989.797	5341.6
1993.971	5310.6
1998.14	5307.6
2002.306	5247.6
2006.469	5259.6
2010.627	5203.6
2014.781	5162.6
2018.932	5160.6
2023.078	5079.6
2027.221	5039.6
2031.36	4924.6
2035.495	4860.6
2039.627	4756.6
2043.754	4700.6
2047.878	4672.6
2051.998	4633.6
2056.114	4651.6
2060.226	4655.6
2064.334	4609.6
2068.439	4605.6
2072.54	4650.6
2076.637	4669.6
2080.73	4678.6
2084.82	4737.6
2088.906	4743.6
2092.988	4730.6
2097.066	4716.6
2101.14	4717.6
2105.211	4673.6
2109.278	4648.6
2113.342	4610.6
2117.401	4564.6
2121.457	4536.6
2125.509	4530.6
2129.558	4505.6
2133.602	4488.6
2137.643	4445.6
2141.681	4424.6
2145.714	4422.6
2149.744	4387.6
2153.77	4363.6
2157.793	4329.6
2161.812	4257.6
2165.827	4230.6
2169.838	4162.6
2173.846	4051.6
2177.851	3983.6
2181.851	3965.6
2185.848	3935.6
2189.841	3842.6
2193.831	3834.6
2197.817	3774.6
2201.799	3747.6
2205.778	3756.6
2209.753	3685.6
2213.725	3694.6
2217.693	3715.6
2221.657	3691.6
2225.618	3687.6
2229.575	3665.6
2233.529	3661.6
2237.479	3607.6
2241.425	3565.6
2245.368	3501.6
2249.307	3456.6
2253.243	3417.6
2257.175	3362.6
2261.104	3298.6
2265.029	3284.6
2268.95	3250.6
2272.868	3228.6
2276.783	3176.6
2280.694	3146.6
2284.601	3117.6
2288.505	3062.6
2292.405	3049.6
2296.302	3019.6
2300.195	2999.6
2304.085	2931.6
2307.971	2908.6
2311.854	2861.6
2315.734	2818.6
2319.609	2793.6
2323.482	2751.6
2327.351	2725.6
2331.216	2720.6
2335.078	2700.6
2338.937	2696.6
2342.792	2685.6
2346.643	2664.6
2350.492	2682.6
2354.336	2646.6
2358.178	2655.6
2362.015	2675.6
2365.85	2693.6
2369.681	2675.6
2373.508	2698.6
2377.333	2703.6
2381.153	2670.6
2384.971	2648.6
2388.785	2639.6
2392.595	2614.6
2396.402	2610.6
2400.206	2580.6
2404.007	2545.6
2407.804	2525.6
2411.597	2524.6
2415.388	2485.6
2419.174	2485.6
2422.958	2487.6
2426.738	2444.6
2430.515	2414.6
2434.289	2415.6
2438.059	2389.6
2441.825	2361.6
2445.589	2356.6
2449.349	2320.6
2453.106	2292.6
2456.859	2263.6
2460.61	2243.6
2464.356	2191.6
2468.1	2169.6
2471.84	2149.6
2475.577	2140.6
2479.311	2115.6
2483.041	2116.6
2486.768	2087.6
2490.492	2077.6
2494.213	2084.6
2497.93	2060.6
2501.644	2038.6
2505.355	2027.6
2509.062	2040.6
2512.766	2012.6
2516.467	1993.6
2520.165	1997.6
2523.859	1953.6
2527.551	1961.6
2531.239	1936.6
2534.923	1907.6
2538.605	1892.6
2542.283	1910.6
2545.958	1906.6
2549.63	1896.6
2553.299	1879.6
2556.964	1874.6
2560.626	1877.6
2564.285	1859.6
2567.941	1859.6
2571.594	1839.6
2575.243	1830.6
2578.89	1813.6
2582.533	1828.6
2586.173	1814.6
2589.809	1792.6
2593.443	1769.6
2597.073	1743.6
2600.701	1732.6
2604.325	1730.6
2607.946	1695.6
2611.564	1692.6
2615.178	1685.6
2618.79	1663.6
2622.398	1648.6
2626.004	1627.6
2629.606	1627.6
2633.205	1608.6
2636.801	1562.6
2640.394	1543.6
2643.983	1510.6
2647.57	1504.6
2651.153	1483.6
2654.734	1452.6
2658.311	1409.6
2661.885	1423.6
2665.456	1397.6
2669.025	1380.6
2672.589	1348.6
2676.151	1358.6
2679.71	1344.6
2683.266	1321.6
2686.819	1277.6
2690.368	1273.6
2693.915	1230.6
2697.458	1195.6
2700.999	1181.6
2704.536	1160.6
2708.071	1101.6
2711.602	1078.6
2715.13	1052.6
2718.656	1047.6
2722.178	1027.6
2725.697	1006.6
2729.214	995.6
2732.727	975.6
2736.237	967.6
2739.744	973.6
2743.249	981.6
2746.75	997.6
2750.248	972.6
2753.743	991.6
2757.236	1000.6
2760.725	1011.6
2764.211	1013.6
2767.695	1014.6
2771.175	1013.6
2774.652	1010.6
2778.127	1008.6
2781.598	995.6
2785.067	993.6
2788.532	1005.6
2791.995	970.6
2795.455	1007.6
2798.911	993.6
2802.365	996.6
2805.816	998.6
2809.264	979.6
2812.709	987.6
2816.151	1001.6
2819.59	1000.6
2823.026	987.6
2826.46	992.6
2829.89	988.6
2833.318	984.6
2836.742	1008.6
2840.164	1016.6
2843.583	1019.6
2846.999	1026.6
2850.412	1030.6
2853.822	1048.6
2857.229	1064.6
2860.634	1074.6
2864.035	1112.6
2867.434	1136.6
2870.83	1153.6
2874.223	1176.6
2877.613	1191.6
2881	1193.6
2884.385	1221.6
2887.766	1220.6
2891.145	1216.6
2894.521	1212.6
2897.894	1219.6
2901.264	1196.6
2904.631	1220.6
2907.996	1220.6
2911.358	1223.6
2914.717	1227.6
2918.073	1241.6
2921.426	1265.6
2924.777	1267.6
2928.124	1270.6
2931.469	1337.6
2934.811	1333.6
2938.15	1356.6
2941.487	1368.6
2944.821	1394.6
2948.152	1360.6
2951.48	1346.6
2954.805	1347.6
2958.128	1343.6
2961.447	1318.6
2964.765	1342.6
2968.079	1312.6
2971.39	1340.6
2974.699	1340.6
2978.005	1365.6
2981.308	1373.6
2984.609	1391.6
2987.907	1423.6
2991.202	1448.6
2994.494	1486.6
2997.784	1516.6
3001.07	1543.6
3004.355	1554.6
3007.636	1580.6
3010.915	1625.6
3014.191	1619.6
3017.464	1645.6
3020.734	1665.6
3024.002	1669.6
3027.267	1684.6
3030.53	1696.6
3033.789	1735.6
3037.046	1768.6
3040.301	1753.6
3043.552	1822.6
3046.801	1833.6
3050.048	1906.6
3053.291	1947.6
3056.532	1993.6
3059.771	2051.6
3063.006	2126.6
3066.239	2169.6
3069.469	2259.6
3072.697	2314.6
3075.922	2351.6
3079.144	2414.6
3082.364	2461.6
3085.581	2515.6
3088.795	2544.6
3092.007	2627.6
3095.216	2675.6
3098.423	2726.6
3101.627	2771.6
3104.828	2872.6
3108.026	2917.6
3111.222	2992.6
3114.416	3041.6
3117.607	3133.6
3120.795	3210.6
3123.98	3294.6
3127.163	3346.6
3130.344	3457.6
3133.521	3506.6
3136.696	3620.6
3139.869	3653.6
3143.039	3735.6
3146.206	3773.6
3149.371	3819.6
3152.533	3894.6
3155.693	3900.6
3158.85	3900.6
3162.005	3936.6
3165.157	3938.6
3168.306	3955.6
3171.453	3963.6
3174.597	3971.6
3177.739	3981.6
3180.878	3992.6
3184.014	4002.6
3187.149	3996.6
3190.28	4007.6
3193.409	4003.6
3196.536	4018.6
3199.659	4046.6
3202.781	4023.6
3205.9	4038.6
3209.016	4008.6
3212.13	4008.6
3215.241	3998.6
3218.35	3950.6
3221.456	3876.6
3224.56	3846.6
3227.661	3812.6
3230.76	3731.6
3233.856	3734.6
3236.95	3658.6
3240.041	3650.6
3243.13	3613.6
3246.216	3579.6
3249.3	3565.6
3252.382	3558.6
3255.46	3516.6
3258.537	3489.6
3261.611	3498.6
3264.682	3526.6
3267.751	3528.6
3270.818	3517.6
3273.882	3524.6
3276.943	3505.6
3280.002	3469.6
3283.059	3418.6
3286.113	3407.6
3289.165	3327.6
3292.214	3310.6
3295.261	3270.6
3298.306	3240.6
3301.348	3160.6
3304.387	3122.6
3307.425	3081.6
3310.459	3026.6
3313.492	2990.6
3316.521	2953.6
3319.549	2910.6
3322.574	2892.6
3325.597	2880.6
3328.617	2861.6
3331.635	2820.6
3334.65	2832.6
3337.663	2798.6
3340.674	2772.6
3343.682	2766.6
3346.688	2774.6
3349.691	2763.6
3352.692	2721.6
3355.691	2708.6
3358.687	2711.6
3361.681	2682.6
3364.673	2638.6
3367.662	2569.6
3370.649	2549.6
3373.633	2519.6
3376.615	2475.6
3379.595	2434.6
3382.572	2408.6
3385.547	2368.6
3388.52	2348.6
3391.49	2287.6
3394.458	2259.6
3397.424	2226.6
3400.387	2209.6
3403.348	2158.6
3406.307	2142.6
3409.263	2147.6
3412.217	2104.6
3415.168	2062.6
3418.118	2030.6
3421.065	2004.6
3424.009	1980.6
3426.951	1958.6
3429.891	1911.6
3432.829	1878.6
3435.764	1845.6
3438.697	1775.6
3441.628	1745.6
3444.557	1685.6
3447.483	1618.6
3450.407	1569.6
3453.328	1522.6
3456.247	1472.6
3459.164	1412.6
3462.079	1350.6
3464.991	1324.6
3467.902	1246.6
3470.809	1219.6
3473.715	1162.6
3476.618	1115.6
3479.519	1073.6
3482.418	1039.6
3485.315	995.6
3488.209	959.6
3491.101	916.6
3493.99	900.6
3496.878	874.6
3499.763	848.6
3502.646	784.6
3505.527	748.6
3508.405	718.6
3511.281	677.6
3514.155	638.6
3517.027	601.6
3519.897	554.6
3522.764	516.6
3525.629	475.6
3528.492	425.6
3531.352	390.6
3534.211	355.6
3537.067	315.6
3539.921	286.6
3542.773	230.6
3545.622	203.6
3548.469	175.6
3551.315	166.6
3554.157	131.6
3556.998	102.6
3559.837	60.6
3562.673	48.6
3565.507	27.6
3568.339	1.6
3571.169	-19.4
3573.996	-24.4
3576.822	-49.4
3579.645	-61.4
3582.466	-84.4
3585.285	-110.4
3588.101	-125.4
3590.916	-147.4
3593.728	-181.4
3596.538	-180.4
3599.346	-202.4
3602.152	-219.4
3604.956	-231.4
3607.757	-261.4
3610.556	-268.4
3613.354	-277.4
3616.149	-296.4
3618.942	-295.4
3621.732	-313.4
3624.521	-328.4
3627.307	-342.4
3630.092	-340.4
3632.874	-353.4
3635.654	-367.4
3638.432	-368.4
3641.208	-384.4
3643.982	-396.4
3646.753	-399.4
3649.523	-403.4
3652.29	-422.4
3655.055	-421.4
3657.818	-433.4
3660.579	-454.4
3663.338	-466.4
3666.095	-471.4
3668.849	-485.4
3671.602	-487.4
3674.352	-498.4
3677.101	-501.4
3679.847	-510.4
3682.591	-520.4
3685.333	-521.4
3688.073	-528.4
3690.811	-536.4
3693.547	-533.4
3696.281	-544.4
3699.013	-541.4
3701.742	-552.4
3704.47	-552.4
3707.195	-562.4
3709.919	-565.4
3712.64	-568.4
3715.359	-571.4
3718.076	-576.4
3720.792	-578.4
3723.505	-578.4
3726.216	-592.4
3728.925	-589.4
3731.632	-595.4
3734.336	-599.4
3737.039	-598.4
3739.74	-599.4
3742.439	-602.4
3745.136	-605.4
3747.83	-608.4
3750.523	-604.4
3753.213	-607.4
3755.902	-613.4
3758.589	-613.4
3761.273	-620.4
3763.956	-627.4
3766.636	-619.4
3769.315	-631.4
3771.991	-618.4
3774.665	-626.4
3777.338	-628.4
3780.008	-634.4
3782.677	-632.4
3785.343	-627.4
3788.007	-626.4
3790.67	-631.4
3793.33	-638.4
3795.989	-640.4
3798.645	-631.4
3801.299	-635.4
3803.952	-643.4
3806.602	-648.4
3809.251	-650.4
3811.897	-644.4
3814.542	-643.4
3817.184	-644.4
3819.825	-643.4
3822.463	-640.4
3825.1	-654.4
3827.735	-650.4
3830.367	-649.4
3832.998	-655.4
3835.627	-661.4
3838.253	-659.4
3840.878	-659.4
3843.501	-654.4
3846.122	-649.4
3848.741	-650.4
3851.358	-657.4
3853.973	-655.4
3856.586	-654.4
3859.197	-655.4
3861.806	-661.4
3864.414	-656.4
3867.019	-652.4
3869.622	-654.4
3872.224	-648.4
3874.823	-633.4
3877.421	-627.4
3880.016	-609.4
3882.61	-581.4
3885.202	-578.4
3887.792	-593.4
3890.38	-622.4
3892.966	-649.4
3895.55	-658.4
3898.132	-671.4
3900.713	-671.4
3903.291	-668.4
3905.868	-665.4
3908.442	-671.4
3911.015	-672.4
3913.586	-665.4
3916.155	-661.4
3918.722	-666.4
3921.287	-663.4
3923.85	-670.4
3926.411	-672.4
3928.971	-678.4
3931.528	-670.4
3934.084	-669.4
3936.638	-670.4
3939.19	-672.4
3941.74	-666.4
3944.288	-675.4
3946.834	-668.4
3949.378	-675.4
3951.921	-671.4
3954.462	-681.4
3957	-675.4
3959.537	-679.4
3962.072	-668.4
3964.606	-678.4
3967.137	-672.4
3969.667	-673.4
3972.194	-666.4
3974.72	-666.4
3977.244	-658.4
3979.766	-659.4
3982.286	-660.4
3984.805	-656.4
3987.321	-658.4
3989.836	-660.4
3992.349	-653.4
3994.86	-654.4
3997.369	-661.4
3999.877	-657.4
4002.382	-655.4
4004.886	-656.4
4007.388	-650.4
4009.888	-654.4
4012.386	-659.4
4014.883	-657.4
4017.377	-656.4
4019.87	-653.4
4022.361	-653.4
4024.85	-660.4
4027.338	-664.4
4029.823	-661.4
4032.307	-664.4
4034.789	-658.4
4037.269	-660.4
4039.747	-656.4
4042.224	-661.4
4044.699	-659.4
4047.172	-662.4
4049.643	-654.4
4052.112	-666.4
4054.58	-665.4
4057.046	-663.4
4059.51	-659.4
4061.972	-665.4
4064.432	-660.4
4066.891	-663.4
4069.348	-656.4
4071.803	-656.4
4074.256	-659.4
4076.708	-657.4
4079.158	-658.4
4081.606	-661.4
4084.052	-670.4
4086.497	-662.4
4088.939	-655.4
4091.38	-657.4
4093.819	-657.4
4096.257	-693.4
4098.693	-692.4
4101.127	-695.4
4103.559	-691.4
4105.989	-397.4
4108.418	-383.4
4110.845	-356.4
4113.27	-328.4
4115.694	-288.4
4118.115	-242.4
4120.535	-663.4
4122.954	-661.4
4125.37	-648.4
4127.785	-662.4
4130.198	-660.4
4132.609	-662.4
4135.019	-694.4
4137.427	-696.4
4139.833	-695.4
4142.237	-691.4
