Data from 2018-3-6_conc=6_n=6_RamanShift_04.txt Node
Date: Tue Mar 06 15:10:18 GMT+02:00 2018
User: LAB3
Spectrometer: QEPB0276
Trigger mode: 0
Integration Time (sec): 3.000000E1
Scans to average: 1
Electric dark correction enabled: true
Nonlinearity correction enabled: false
Boxcar width: 0
XAxis mode: Raman Shifts
Number of Pixels in Spectrum: 1044
>>>>>Begin Spectral Data<<<<<
160.701	34
166.742	45
172.777	76
178.805	149
184.826	362
190.841	754
196.849	1180
202.85	1487
208.845	1595
214.833	1590
220.815	1544
226.789	1527
232.758	1547
238.719	1518
244.674	1492
250.623	1485
256.565	1471
262.5	1451
268.429	1432
274.351	1403
280.267	1427
286.176	1410
292.079	1393
297.975	1410
303.865	1397
309.748	1403
315.625	1395
321.495	1410
327.359	1390
333.217	1389
339.068	1398
344.912	1402
350.751	1407
356.583	1403
362.408	1403
368.227	1419
374.04	1439
379.847	1437
385.647	1455
391.44	1426
397.228	1440
403.009	1457
408.784	1454
414.553	1464
420.315	1471
426.071	1439
431.821	1474
437.565	1461
443.302	1450
449.033	1428
454.758	1450
460.477	1424
466.189	1407
471.896	1401
477.596	1404
483.29	1376
488.978	1363
494.66	1354
500.335	1321
506.005	1257
511.668	1193
517.325	1132
522.977	1088
528.622	1048
534.261	1019
539.894	997
545.521	989
551.141	956
556.756	967
562.365	955
567.968	935
573.565	929
579.155	932
584.74	928
590.319	920
595.892	921
601.459	923
607.02	913
612.575	910
618.124	913
623.667	877
629.204	873
634.735	866
640.261	845
645.781	823
651.294	815
656.802	839
662.304	849
667.8	838
673.29	823
678.775	836
684.254	830
689.726	807
695.193	814
700.655	820
706.11	814
711.56	814
717.004	805
722.442	779
727.874	780
733.301	801
738.722	766
744.137	778
749.547	762
754.951	779
760.349	770
765.741	779
771.128	775
776.509	799
781.885	818
787.254	827
792.618	824
797.977	822
803.33	820
808.677	812
814.019	802
819.355	778
824.686	790
830.011	776
835.33	792
840.644	793
845.952	771
851.255	775
856.552	758
861.844	748
867.13	743
872.41	729
877.686	728
882.955	714
888.219	715
893.478	693
898.731	699
903.979	700
909.221	682
914.458	674
919.69	680
924.916	663
930.136	659
935.351	666
940.561	676
945.766	676
950.965	688
956.158	649
961.347	664
966.529	644
971.707	665
976.879	647
982.046	634
987.208	620
992.364	631
997.515	617
1002.66	634
1007.801	629
1012.936	644
1018.066	600
1023.19	643
1028.309	657
1033.423	652
1038.532	652
1043.636	639
1048.734	645
1053.827	630
1058.915	618
1063.998	626
1069.075	603
1074.147	622
1079.214	597
1084.276	621
1089.333	634
1094.385	634
1099.431	620
1104.472	619
1109.509	598
1114.54	598
1119.565	594
1124.586	578
1129.602	582
1134.613	563
1139.618	558
1144.619	564
1149.614	578
1154.604	569
1159.589	568
1164.57	584
1169.545	597
1174.515	584
1179.48	571
1184.44	575
1189.395	584
1194.345	558
1199.29	564
1204.23	544
1209.165	548
1214.095	553
1219.021	555
1223.941	547
1228.856	572
1233.766	568
1238.672	572
1243.572	570
1248.467	559
1253.358	554
1258.244	534
1263.124	551
1268	534
1272.871	514
1277.737	524
1282.599	513
1287.455	508
1292.306	518
1297.153	507
1301.995	524
1306.832	509
1311.664	521
1316.491	512
1321.314	519
1326.132	517
1330.945	522
1335.753	498
1340.556	484
1345.354	476
1350.148	486
1354.937	482
1359.722	464
1364.501	459
1369.276	462
1374.046	482
1378.811	461
1383.572	466
1388.327	468
1393.079	452
1397.825	450
1402.567	445
1407.304	436
1412.036	439
1416.764	438
1421.487	423
1426.205	428
1430.919	437
1435.628	432
1440.333	430
1445.032	440
1449.727	431
1454.418	453
1459.104	461
1463.785	440
1468.462	449
1473.134	433
1477.802	441
1482.465	404
1487.123	423
1491.777	407
1496.426	397
1501.071	424
1505.711	411
1510.347	428
1514.978	429
1519.604	422
1524.226	430
1528.844	415
1533.457	422
1538.065	418
1542.669	412
1547.269	416
1551.864	409
1556.454	394
1561.041	400
1565.622	396
1570.199	409
1574.772	401
1579.34	408
1583.904	407
1588.464	424
1593.019	430
1597.569	395
1602.115	401
1606.657	410
1611.195	416
1615.728	418
1620.256	398
1624.78	388
1629.3	402
1633.816	415
1638.327	411
1642.834	412
1647.336	408
1651.834	418
1656.328	419
1660.817	402
1665.302	400
1669.783	399
1674.259	389
1678.732	391
1683.199	379
1687.663	362
1692.122	366
1696.577	356
1701.028	364
1705.474	347
1709.917	330
1714.355	339
1718.788	334
1723.218	319
1727.643	309
1732.064	309
1736.481	293
1740.893	307
1745.301	295
1749.705	273
1754.105	291
1758.501	274
1762.893	280
1767.28	264
1771.663	273
1776.042	260
1780.417	260
1784.787	265
1789.154	276
1793.516	270
1797.874	267
1802.228	269
1806.578	261
1810.924	269
1815.266	155
1819.603	266
1823.937	250
1828.266	250
1832.591	256
1836.913	248
1841.23	234
1845.543	232
1849.852	246
1854.156	244
1858.457	241
1862.754	231
1867.047	234
1871.335	253
1875.62	254
1879.9	245
1884.177	231
1888.449	237
1892.718	237
1896.982	244
1901.243	219
1905.499	237
1909.752	224
1914	212
1918.245	240
1922.485	249
1926.722	243
1930.954	229
1935.183	245
1939.408	249
1943.628	242
1947.845	245
1952.058	230
1956.267	226
1960.472	229
1964.673	225
1968.87	222
1973.063	214
1977.252	211
1981.438	208
1985.619	204
1989.797	196
1993.971	207
1998.14	223
2002.306	204
2006.469	202
2010.627	185
2014.781	193
2018.932	195
2023.078	213
2027.221	201
2031.36	192
2035.495	185
2039.627	193
2043.754	190
2047.878	187
2051.998	185
2056.114	184
2060.226	187
2064.334	192
2068.439	197
2072.54	197
2076.637	180
2080.73	180
2084.82	184
2088.906	189
2092.988	190
2097.066	180
2101.14	196
2105.211	187
2109.278	179
2113.342	177
2117.401	168
2121.457	167
2125.509	162
2129.558	167
2133.602	169
2137.643	167
2141.681	166
2145.714	165
2149.744	172
2153.77	158
2157.793	152
2161.812	128
2165.827	127
2169.838	159
2173.846	144
2177.851	141
2181.851	156
2185.848	136
2189.841	145
2193.831	140
2197.817	141
2201.799	138
2205.778	124
2209.753	127
2213.725	123
2217.693	133
2221.657	126
2225.618	141
2229.575	129
2233.529	130
2237.479	139
2241.425	122
2245.368	115
2249.307	123
2253.243	118
2257.175	125
2261.104	116
2265.029	121
2268.95	122
2272.868	103
2276.783	104
2280.694	114
2284.601	112
2288.505	97
2292.405	108
2296.302	87
2300.195	104
2304.085	69
2307.971	100
2311.854	75
2315.734	96
2319.609	100
2323.482	75
2327.351	87
2331.216	83
2335.078	96
2338.937	95
2342.792	79
2346.643	77
2350.492	96
2354.336	82
2358.178	92
2362.015	90
2365.85	86
2369.681	77
2373.508	83
2377.333	86
2381.153	88
2384.971	75
2388.785	82
2392.595	66
2396.402	73
2400.206	47
2404.007	65
2407.804	71
2411.597	73
2415.388	70
2419.174	67
2422.958	66
2426.738	66
2430.515	77
2434.289	64
2438.059	68
2441.825	62
2445.589	77
2449.349	54
2453.106	65
2456.859	70
2460.61	83
2464.356	55
2468.1	55
2471.84	57
2475.577	57
2479.311	56
2483.041	56
2486.768	68
2490.492	70
2494.213	69
2497.93	49
2501.644	46
2505.355	57
2509.062	60
2512.766	60
2516.467	46
2520.165	46
2523.859	46
2527.551	73
2531.239	42
2534.923	50
2538.605	46
2542.283	52
2545.958	55
2549.63	63
2553.299	62
2556.964	42
2560.626	50
2564.285	50
2567.941	39
2571.594	38
2575.243	52
2578.89	38
2582.533	47
2586.173	45
2589.809	52
2593.443	20
2597.073	45
2600.701	48
2604.325	41
2607.946	34
2611.564	48
2615.178	45
2618.79	42
2622.398	31
2626.004	41
2629.606	41
2633.205	29
2636.801	40
2640.394	40
2643.983	34
2647.57	32
2651.153	27
2654.734	46
2658.311	14
2661.885	24
2665.456	31
2669.025	36
2672.589	28
2676.151	41
2679.71	44
2683.266	35
2686.819	22
2690.368	36
2693.915	40
2697.458	33
2700.999	39
2704.536	36
2708.071	30
2711.602	33
2715.13	30
2718.656	6
2722.178	31
2725.697	9
2729.214	18
2732.727	24
2736.237	14
2739.744	19
2743.249	18
2746.75	24
2750.248	12
2753.743	25
2757.236	23
2760.725	29
2764.211	-4
2767.695	28
2771.175	20
2774.652	27
2778.127	19
2781.598	16
2785.067	25
2788.532	14
2791.995	21
2795.455	19
2798.911	28
2802.365	15
2805.816	24
2809.264	28
2812.709	15
2816.151	21
2819.59	6
2823.026	10
2826.46	17
2829.89	26
2833.318	-7
2836.742	14
2840.164	14
2843.583	17
2846.999	18
2850.412	23
2853.822	17
2857.229	30
2860.634	27
2864.035	7
2867.434	28
2870.83	28
2874.223	21
2877.613	22
2881	15
2884.385	13
2887.766	22
2891.145	18
2894.521	25
2897.894	10
2901.264	29
2904.631	23
2907.996	29
2911.358	34
2914.717	28
2918.073	23
2921.426	19
2924.777	4
2928.124	21
2931.469	30
2934.811	9
2938.15	35
2941.487	32
2944.821	38
2948.152	25
2951.48	33
2954.805	18
2958.128	39
2961.447	26
2964.765	43
2968.079	37
2971.39	41
2974.699	39
2978.005	36
2981.308	36
2984.609	23
2987.907	41
2991.202	47
2994.494	27
2997.784	41
3001.07	36
3004.355	30
3007.636	40
3010.915	43
3014.191	30
3017.464	41
3020.734	38
3024.002	40
3027.267	38
3030.53	45
3033.789	42
3037.046	41
3040.301	35
3043.552	43
3046.801	44
3050.048	57
3053.291	68
3056.532	56
3059.771	34
3063.006	59
3066.239	51
3069.469	60
3072.697	58
3075.922	56
3079.144	58
3082.364	79
3085.581	64
3088.795	83
3092.007	77
3095.216	87
3098.423	76
3101.627	51
3104.828	87
3108.026	71
3111.222	93
3114.416	100
3117.607	95
3120.795	94
3123.98	93
3127.163	85
3130.344	95
3133.521	90
3136.696	108
3139.869	104
3143.039	88
3146.206	114
3149.371	113
3152.533	98
3155.693	109
3158.85	110
3162.005	112
3165.157	108
3168.306	109
3171.453	118
3174.597	103
3177.739	100
3180.878	119
3184.014	123
3187.149	114
3190.28	113
3193.409	119
3196.536	121
3199.659	132
3202.781	126
3205.9	110
3209.016	119
3212.13	117
3215.241	117
3218.35	115
3221.456	111
3224.56	107
3227.661	115
3230.76	109
3233.856	106
3236.95	114
3240.041	99
3243.13	116
3246.216	105
3249.3	113
3252.382	105
3255.46	98
3258.537	47
3261.611	91
3264.682	102
3267.751	101
3270.818	87
3273.882	102
3276.943	92
3280.002	105
3283.059	93
3286.113	95
3289.165	87
3292.214	88
3295.261	105
3298.306	69
3301.348	92
3304.387	87
3307.425	94
3310.459	86
3313.492	96
3316.521	90
3319.549	96
3322.574	94
3325.597	90
3328.617	78
3331.635	74
3334.65	67
3337.663	85
3340.674	74
3343.682	82
3346.688	89
3349.691	69
3352.692	75
3355.691	83
3358.687	74
3361.681	79
3364.673	73
3367.662	83
3370.649	80
3373.633	64
3376.615	67
3379.595	57
3382.572	68
3385.547	54
3388.52	59
3391.49	63
3394.458	63
3397.424	69
3400.387	56
3403.348	62
3406.307	61
3409.263	57
3412.217	63
3415.168	60
3418.118	73
3421.065	56
3424.009	72
3426.951	54
3429.891	50
3432.829	53
3435.764	59
3438.697	39
3441.628	61
3444.557	43
3447.483	35
3450.407	47
3453.328	38
3456.247	40
3459.164	36
3462.079	44
3464.991	38
3467.902	32
3470.809	30
3473.715	34
3476.618	22
3479.519	28
3482.418	7
3485.315	22
3488.209	16
3491.101	17
3493.99	5
3496.878	8
3499.763	11
3502.646	13
3505.527	3
3508.405	8
3511.281	-5
3514.155	14
3517.027	8
3519.897	-2
3522.764	9
3525.629	-8
3528.492	-4
3531.352	6
3534.211	6
3537.067	-5
3539.921	-1
3542.773	3
3545.622	-12
3548.469	-12
3551.315	-16
3554.157	-8
3556.998	-21
3559.837	-12
3562.673	-8
3565.507	-19
3568.339	-23
3571.169	-18
3573.996	-17
3576.822	-31
3579.645	-23
3582.466	-26
3585.285	-17
3588.101	-24
3590.916	-23
3593.728	-11
3596.538	-21
3599.346	-14
3602.152	-26
3604.956	-21
3607.757	-15
3610.556	-40
3613.354	-17
3616.149	-19
3618.942	-18
3621.732	-14
3624.521	-29
3627.307	-35
3630.092	-27
3632.874	-12
3635.654	-24
3638.432	-34
3641.208	-30
3643.982	-30
3646.753	-20
3649.523	-56
3652.29	-30
3655.055	-24
3657.818	-26
3660.579	-32
3663.338	-42
3666.095	-31
3668.849	-52
3671.602	-23
3674.352	-37
3677.101	-24
3679.847	-29
3682.591	-38
3685.333	-40
3688.073	-25
3690.811	-32
3693.547	-41
3696.281	-39
3699.013	-27
3701.742	-32
3704.47	-41
3707.195	-26
3709.919	-26
3712.64	-38
3715.359	-35
3718.076	-21
3720.792	-31
3723.505	-26
3726.216	-24
3728.925	-33
3731.632	-40
3734.336	-31
3737.039	-33
3739.74	-31
3742.439	-56
3745.136	-29
3747.83	-32
3750.523	-28
3753.213	-91
3755.902	-35
3758.589	-45
3761.273	-38
3763.956	-23
3766.636	-47
3769.315	-20
3771.991	-33
3774.665	-36
3777.338	-31
3780.008	-44
3782.677	-31
3785.343	-52
3788.007	-53
3790.67	-29
3793.33	-46
3795.989	-31
3798.645	-32
3801.299	-50
3803.952	-39
3806.602	-38
3809.251	-31
3811.897	-32
3814.542	-39
3817.184	-41
3819.825	-35
3822.463	-42
3825.1	-38
3827.735	-34
3830.367	-43
3832.998	-20
3835.627	-38
3838.253	-25
3840.878	-38
3843.501	-18
3846.122	-27
3848.741	-27
3851.358	-22
3853.973	-47
3856.586	-23
3859.197	-36
3861.806	-34
3864.414	-43
3867.019	-37
3869.622	-24
3872.224	-25
3874.823	-23
3877.421	-6
3880.016	0
3882.61	27
3885.202	37
3887.792	15
3890.38	-2
3892.966	-25
3895.55	-44
3898.132	-34
3900.713	-27
3903.291	-31
3905.868	-41
3908.442	-32
3911.015	-34
3913.586	-32
3916.155	-37
3918.722	-36
3921.287	-40
3923.85	-43
3926.411	-37
3928.971	-41
3931.528	-28
3934.084	-31
3936.638	-39
3939.19	-25
3941.74	-33
3944.288	-34
3946.834	-29
3949.378	-27
3951.921	-37
3954.462	-36
3957	-32
3959.537	-23
3962.072	-33
3964.606	-51
3967.137	-41
3969.667	-39
3972.194	-28
3974.72	-36
3977.244	-56
3979.766	-44
3982.286	-43
3984.805	-37
3987.321	-23
3989.836	-26
3992.349	-43
3994.86	-36
3997.369	-41
3999.877	-36
4002.382	-33
4004.886	-29
4007.388	-34
4009.888	-22
4012.386	-26
4014.883	-28
4017.377	-32
4019.87	-29
4022.361	-37
4024.85	-34
4027.338	-30
4029.823	-39
4032.307	-32
4034.789	-29
4037.269	-32
4039.747	-46
4042.224	-26
4044.699	-43
4047.172	-44
4049.643	-26
4052.112	-62
4054.58	-33
4057.046	-45
4059.51	-30
4061.972	-36
4064.432	-49
4066.891	-21
4069.348	-33
4071.803	-31
4074.256	-35
4076.708	-29
4079.158	-29
4081.606	-22
4084.052	-33
4086.497	-25
4088.939	-30
4091.38	-37
4093.819	-28
4096.257	3
4098.693	-4
4101.127	-7
4103.559	1
4105.989	35
4108.418	41
4110.845	28
4113.27	25
4115.694	40
4118.115	26
4120.535	-30
4122.954	-27
4125.37	-22
4127.785	-32
4130.198	-21
4132.609	-28
4135.019	8
4137.427	-1
4139.833	5
4142.237	-5
