Data from 2018-3-6_conc=5_n=9_RamanShift_05.txt Node
Date: Tue Mar 06 14:49:18 GMT+02:00 2018
User: LAB3
Spectrometer: QEPB0276
Trigger mode: 0
Integration Time (sec): 3.000000E1
Scans to average: 1
Electric dark correction enabled: true
Nonlinearity correction enabled: false
Boxcar width: 0
XAxis mode: Raman Shifts
Number of Pixels in Spectrum: 1044
>>>>>Begin Spectral Data<<<<<
160.701	52.5
166.742	69.5
172.777	105.5
178.805	190.5
184.826	454.5
190.841	902.5
196.849	1424.5
202.85	1828.5
208.845	1968.5
214.833	1936.5
220.815	1892.5
226.789	1871.5
232.758	1872.5
238.719	1868.5
244.674	1852.5
250.623	1818.5
256.565	1799.5
262.5	1775.5
268.429	1738.5
274.351	1734.5
280.267	1727.5
286.176	1712.5
292.079	1725.5
297.975	1706.5
303.865	1720.5
309.748	1707.5
315.625	1692.5
321.495	1738.5
327.359	1705.5
333.217	1702.5
339.068	1696.5
344.912	1709.5
350.751	1695.5
356.583	1727.5
362.408	1727.5
368.227	1714.5
374.04	1726.5
379.847	1730.5
385.647	1752.5
391.44	1731.5
397.228	1749.5
403.009	1769.5
408.784	1753.5
414.553	1768.5
420.315	1790.5
426.071	1766.5
431.821	1785.5
437.565	1778.5
443.302	1763.5
449.033	1746.5
454.758	1763.5
460.477	1754.5
466.189	1736.5
471.896	1695.5
477.596	1681.5
483.29	1660.5
488.978	1658.5
494.66	1633.5
500.335	1611.5
506.005	1532.5
511.668	1459.5
517.325	1390.5
522.977	1308.5
528.622	1266.5
534.261	1238.5
539.894	1215.5
545.521	1193.5
551.141	1155.5
556.756	1153.5
562.365	1149.5
567.968	1129.5
573.565	1117.5
579.155	1125.5
584.74	1094.5
590.319	1097.5
595.892	1115.5
601.459	1124.5
607.02	1107.5
612.575	1096.5
618.124	1094.5
623.667	1069.5
629.204	1056.5
634.735	1035.5
640.261	1035.5
645.781	984.5
651.294	1000.5
656.802	995.5
662.304	1008.5
667.8	1017.5
673.29	990.5
678.775	1011.5
684.254	998.5
689.726	969.5
695.193	978.5
700.655	973.5
706.11	970.5
711.56	955.5
717.004	960.5
722.442	942.5
727.874	928.5
733.301	950.5
738.722	933.5
744.137	927.5
749.547	910.5
754.951	925.5
760.349	921.5
765.741	950.5
771.128	932.5
776.509	960.5
781.885	994.5
787.254	975.5
792.618	988.5
797.977	995.5
803.33	985.5
808.677	981.5
814.019	966.5
819.355	966.5
824.686	943.5
830.011	940.5
835.33	953.5
840.644	941.5
845.952	919.5
851.255	929.5
856.552	917.5
861.844	908.5
867.13	885.5
872.41	883.5
877.686	873.5
882.955	866.5
888.219	854.5
893.478	832.5
898.731	830.5
903.979	826.5
909.221	825.5
914.458	809.5
919.69	815.5
924.916	821.5
930.136	813.5
935.351	805.5
940.561	820.5
945.766	812.5
950.965	815.5
956.158	799.5
961.347	790.5
966.529	787.5
971.707	786.5
976.879	766.5
982.046	755.5
987.208	740.5
992.364	757.5
997.515	740.5
1002.66	751.5
1007.801	749.5
1012.936	759.5
1018.066	752.5
1023.19	766.5
1028.309	773.5
1033.423	777.5
1038.532	783.5
1043.636	770.5
1048.734	762.5
1053.827	745.5
1058.915	738.5
1063.998	751.5
1069.075	731.5
1074.147	759.5
1079.214	731.5
1084.276	749.5
1089.333	751.5
1094.385	760.5
1099.431	729.5
1104.472	745.5
1109.509	732.5
1114.54	720.5
1119.565	718.5
1124.586	713.5
1129.602	690.5
1134.613	676.5
1139.618	680.5
1144.619	670.5
1149.614	692.5
1154.604	687.5
1159.589	678.5
1164.57	701.5
1169.545	705.5
1174.515	693.5
1179.48	691.5
1184.44	698.5
1189.395	706.5
1194.345	683.5
1199.29	679.5
1204.23	667.5
1209.165	659.5
1214.095	679.5
1219.021	675.5
1223.941	661.5
1228.856	669.5
1233.766	682.5
1238.672	684.5
1243.572	690.5
1248.467	678.5
1253.358	670.5
1258.244	642.5
1263.124	655.5
1268	649.5
1272.871	616.5
1277.737	620.5
1282.599	609.5
1287.455	611.5
1292.306	621.5
1297.153	599.5
1301.995	621.5
1306.832	609.5
1311.664	619.5
1316.491	612.5
1321.314	629.5
1326.132	619.5
1330.945	619.5
1335.753	595.5
1340.556	589.5
1345.354	579.5
1350.148	566.5
1354.937	565.5
1359.722	547.5
1364.501	557.5
1369.276	558.5
1374.046	571.5
1378.811	547.5
1383.572	563.5
1388.327	567.5
1393.079	547.5
1397.825	535.5
1402.567	526.5
1407.304	530.5
1412.036	525.5
1416.764	524.5
1421.487	511.5
1426.205	507.5
1430.919	523.5
1435.628	535.5
1440.333	515.5
1445.032	528.5
1449.727	538.5
1454.418	546.5
1459.104	553.5
1463.785	525.5
1468.462	523.5
1473.134	516.5
1477.802	516.5
1482.465	487.5
1487.123	504.5
1491.777	472.5
1496.426	476.5
1501.071	503.5
1505.711	490.5
1510.347	501.5
1514.978	498.5
1519.604	502.5
1524.226	513.5
1528.844	481.5
1533.457	503.5
1538.065	494.5
1542.669	485.5
1547.269	486.5
1551.864	490.5
1556.454	476.5
1561.041	477.5
1565.622	479.5
1570.199	483.5
1574.772	482.5
1579.34	503.5
1583.904	493.5
1588.464	504.5
1593.019	503.5
1597.569	484.5
1602.115	480.5
1606.657	487.5
1611.195	492.5
1615.728	500.5
1620.256	484.5
1624.78	459.5
1629.3	472.5
1633.816	481.5
1638.327	486.5
1642.834	498.5
1647.336	487.5
1651.834	516.5
1656.328	496.5
1660.817	493.5
1665.302	474.5
1669.783	473.5
1674.259	474.5
1678.732	451.5
1683.199	456.5
1687.663	440.5
1692.122	442.5
1696.577	437.5
1701.028	428.5
1705.474	403.5
1709.917	394.5
1714.355	392.5
1718.788	384.5
1723.218	380.5
1727.643	369.5
1732.064	379.5
1736.481	348.5
1740.893	368.5
1745.301	361.5
1749.705	331.5
1754.105	344.5
1758.501	332.5
1762.893	331.5
1767.28	308.5
1771.663	316.5
1776.042	312.5
1780.417	311.5
1784.787	322.5
1789.154	324.5
1793.516	334.5
1797.874	314.5
1802.228	304.5
1806.578	303.5
1810.924	326.5
1815.266	203.5
1819.603	311.5
1823.937	301.5
1828.266	302.5
1832.591	302.5
1836.913	289.5
1841.23	285.5
1845.543	286.5
1849.852	294.5
1854.156	282.5
1858.457	283.5
1862.754	286.5
1867.047	297.5
1871.335	295.5
1875.62	287.5
1879.9	290.5
1884.177	283.5
1888.449	288.5
1892.718	281.5
1896.982	283.5
1901.243	267.5
1905.499	274.5
1909.752	276.5
1914	259.5
1918.245	276.5
1922.485	285.5
1926.722	277.5
1930.954	257.5
1935.183	275.5
1939.408	285.5
1943.628	278.5
1947.845	278.5
1952.058	272.5
1956.267	259.5
1960.472	275.5
1964.673	263.5
1968.87	258.5
1973.063	257.5
1977.252	255.5
1981.438	243.5
1985.619	248.5
1989.797	230.5
1993.971	235.5
1998.14	246.5
2002.306	247.5
2006.469	248.5
2010.627	239.5
2014.781	232.5
2018.932	230.5
2023.078	247.5
2027.221	238.5
2031.36	230.5
2035.495	222.5
2039.627	227.5
2043.754	226.5
2047.878	219.5
2051.998	219.5
2056.114	223.5
2060.226	219.5
2064.334	229.5
2068.439	229.5
2072.54	222.5
2076.637	213.5
2080.73	217.5
2084.82	211.5
2088.906	213.5
2092.988	215.5
2097.066	223.5
2101.14	225.5
2105.211	221.5
2109.278	204.5
2113.342	202.5
2117.401	206.5
2121.457	193.5
2125.509	192.5
2129.558	201.5
2133.602	201.5
2137.643	193.5
2141.681	197.5
2145.714	196.5
2149.744	204.5
2153.77	205.5
2157.793	179.5
2161.812	165.5
2165.827	176.5
2169.838	198.5
2173.846	177.5
2177.851	172.5
2181.851	183.5
2185.848	172.5
2189.841	179.5
2193.831	170.5
2197.817	169.5
2201.799	165.5
2205.778	146.5
2209.753	156.5
2213.725	153.5
2217.693	157.5
2221.657	151.5
2225.618	166.5
2229.575	160.5
2233.529	159.5
2237.479	165.5
2241.425	147.5
2245.368	143.5
2249.307	155.5
2253.243	144.5
2257.175	155.5
2261.104	140.5
2265.029	140.5
2268.95	136.5
2272.868	128.5
2276.783	125.5
2280.694	136.5
2284.601	131.5
2288.505	127.5
2292.405	133.5
2296.302	114.5
2300.195	131.5
2304.085	89.5
2307.971	116.5
2311.854	95.5
2315.734	107.5
2319.609	120.5
2323.482	92.5
2327.351	101.5
2331.216	105.5
2335.078	107.5
2338.937	108.5
2342.792	103.5
2346.643	102.5
2350.492	109.5
2354.336	95.5
2358.178	106.5
2362.015	101.5
2365.85	97.5
2369.681	97.5
2373.508	102.5
2377.333	106.5
2381.153	108.5
2384.971	98.5
2388.785	102.5
2392.595	99.5
2396.402	87.5
2400.206	70.5
2404.007	89.5
2407.804	91.5
2411.597	97.5
2415.388	91.5
2419.174	80.5
2422.958	93.5
2426.738	90.5
2430.515	95.5
2434.289	83.5
2438.059	81.5
2441.825	85.5
2445.589	98.5
2449.349	69.5
2453.106	81.5
2456.859	84.5
2460.61	85.5
2464.356	71.5
2468.1	68.5
2471.84	70.5
2475.577	66.5
2479.311	71.5
2483.041	78.5
2486.768	90.5
2490.492	87.5
2494.213	81.5
2497.93	66.5
2501.644	62.5
2505.355	63.5
2509.062	75.5
2512.766	67.5
2516.467	59.5
2520.165	67.5
2523.859	54.5
2527.551	86.5
2531.239	60.5
2534.923	67.5
2538.605	64.5
2542.283	72.5
2545.958	69.5
2549.63	81.5
2553.299	76.5
2556.964	61.5
2560.626	68.5
2564.285	70.5
2567.941	58.5
2571.594	56.5
2575.243	63.5
2578.89	55.5
2582.533	62.5
2586.173	59.5
2589.809	64.5
2593.443	38.5
2597.073	54.5
2600.701	66.5
2604.325	54.5
2607.946	47.5
2611.564	63.5
2615.178	56.5
2618.79	58.5
2622.398	44.5
2626.004	59.5
2629.606	55.5
2633.205	48.5
2636.801	54.5
2640.394	52.5
2643.983	49.5
2647.57	45.5
2651.153	43.5
2654.734	52.5
2658.311	26.5
2661.885	36.5
2665.456	38.5
2669.025	42.5
2672.589	41.5
2676.151	49.5
2679.71	55.5
2683.266	47.5
2686.819	33.5
2690.368	47.5
2693.915	55.5
2697.458	47.5
2700.999	52.5
2704.536	49.5
2708.071	42.5
2711.602	42.5
2715.13	38.5
2718.656	26.5
2722.178	36.5
2725.697	30.5
2729.214	28.5
2732.727	46.5
2736.237	22.5
2739.744	31.5
2743.249	24.5
2746.75	32.5
2750.248	28.5
2753.743	32.5
2757.236	35.5
2760.725	37.5
2764.211	2.5
2767.695	35.5
2771.175	31.5
2774.652	31.5
2778.127	25.5
2781.598	27.5
2785.067	31.5
2788.532	23.5
2791.995	35.5
2795.455	24.5
2798.911	37.5
2802.365	22.5
2805.816	32.5
2809.264	35.5
2812.709	23.5
2816.151	34.5
2819.59	20.5
2823.026	32.5
2826.46	24.5
2829.89	41.5
2833.318	11.5
2836.742	20.5
2840.164	33.5
2843.583	27.5
2846.999	24.5
2850.412	30.5
2853.822	28.5
2857.229	40.5
2860.634	29.5
2864.035	17.5
2867.434	40.5
2870.83	37.5
2874.223	22.5
2877.613	26.5
2881	17.5
2884.385	22.5
2887.766	27.5
2891.145	31.5
2894.521	31.5
2897.894	22.5
2901.264	35.5
2904.631	35.5
2907.996	39.5
2911.358	44.5
2914.717	33.5
2918.073	30.5
2921.426	27.5
2924.777	17.5
2928.124	34.5
2931.469	43.5
2934.811	20.5
2938.15	39.5
2941.487	39.5
2944.821	54.5
2948.152	42.5
2951.48	47.5
2954.805	34.5
2958.128	55.5
2961.447	36.5
2964.765	55.5
2968.079	40.5
2971.39	50.5
2974.699	46.5
2978.005	48.5
2981.308	48.5
2984.609	39.5
2987.907	48.5
2991.202	58.5
2994.494	34.5
2997.784	46.5
3001.07	47.5
3004.355	44.5
3007.636	52.5
3010.915	53.5
3014.191	45.5
3017.464	53.5
3020.734	53.5
3024.002	53.5
3027.267	49.5
3030.53	52.5
3033.789	49.5
3037.046	56.5
3040.301	45.5
3043.552	63.5
3046.801	60.5
3050.048	66.5
3053.291	80.5
3056.532	67.5
3059.771	54.5
3063.006	66.5
3066.239	64.5
3069.469	75.5
3072.697	68.5
3075.922	65.5
3079.144	66.5
3082.364	92.5
3085.581	69.5
3088.795	101.5
3092.007	96.5
3095.216	96.5
3098.423	95.5
3101.627	76.5
3104.828	98.5
3108.026	94.5
3111.222	115.5
3114.416	120.5
3117.607	117.5
3120.795	110.5
3123.98	111.5
3127.163	107.5
3130.344	113.5
3133.521	114.5
3136.696	125.5
3139.869	128.5
3143.039	115.5
3146.206	140.5
3149.371	133.5
3152.533	132.5
3155.693	124.5
3158.85	137.5
3162.005	139.5
3165.157	130.5
3168.306	133.5
3171.453	143.5
3174.597	133.5
3177.739	121.5
3180.878	141.5
3184.014	135.5
3187.149	142.5
3190.28	143.5
3193.409	146.5
3196.536	147.5
3199.659	152.5
3202.781	149.5
3205.9	138.5
3209.016	150.5
3212.13	135.5
3215.241	148.5
3218.35	146.5
3221.456	140.5
3224.56	123.5
3227.661	137.5
3230.76	135.5
3233.856	126.5
3236.95	139.5
3240.041	124.5
3243.13	136.5
3246.216	134.5
3249.3	139.5
3252.382	134.5
3255.46	122.5
3258.537	77.5
3261.611	127.5
3264.682	124.5
3267.751	120.5
3270.818	113.5
3273.882	125.5
3276.943	120.5
3280.002	129.5
3283.059	107.5
3286.113	122.5
3289.165	115.5
3292.214	109.5
3295.261	121.5
3298.306	96.5
3301.348	116.5
3304.387	106.5
3307.425	121.5
3310.459	108.5
3313.492	127.5
3316.521	110.5
3319.549	112.5
3322.574	111.5
3325.597	102.5
3328.617	101.5
3331.635	105.5
3334.65	84.5
3337.663	107.5
3340.674	98.5
3343.682	105.5
3346.688	107.5
3349.691	102.5
3352.692	95.5
3355.691	101.5
3358.687	103.5
3361.681	98.5
3364.673	100.5
3367.662	100.5
3370.649	103.5
3373.633	89.5
3376.615	92.5
3379.595	75.5
3382.572	80.5
3385.547	78.5
3388.52	81.5
3391.49	78.5
3394.458	82.5
3397.424	84.5
3400.387	76.5
3403.348	75.5
3406.307	75.5
3409.263	78.5
3412.217	78.5
3415.168	72.5
3418.118	81.5
3421.065	69.5
3424.009	82.5
3426.951	68.5
3429.891	59.5
3432.829	66.5
3435.764	66.5
3438.697	59.5
3441.628	76.5
3444.557	45.5
3447.483	51.5
3450.407	59.5
3453.328	52.5
3456.247	47.5
3459.164	43.5
3462.079	63.5
3464.991	45.5
3467.902	49.5
3470.809	49.5
3473.715	54.5
3476.618	42.5
3479.519	35.5
3482.418	24.5
3485.315	29.5
3488.209	31.5
3491.101	30.5
3493.99	14.5
3496.878	20.5
3499.763	21.5
3502.646	28.5
3505.527	13.5
3508.405	14.5
3511.281	7.5
3514.155	15.5
3517.027	11.5
3519.897	-2.5
3522.764	14.5
3525.629	-9.5
3528.492	7.5
3531.352	7.5
3534.211	3.5
3537.067	-1.5
3539.921	6.5
3542.773	6.5
3545.622	-11.5
3548.469	-6.5
3551.315	-12.5
3554.157	-4.5
3556.998	-11.5
3559.837	-7.5
3562.673	1.5
3565.507	-16.5
3568.339	-19.5
3571.169	-8.5
3573.996	-9.5
3576.822	-22.5
3579.645	-23.5
3582.466	-19.5
3585.285	-11.5
3588.101	-13.5
3590.916	-14.5
3593.728	-9.5
3596.538	-20.5
3599.346	-14.5
3602.152	-21.5
3604.956	-15.5
3607.757	-10.5
3610.556	-29.5
3613.354	-12.5
3616.149	-20.5
3618.942	-15.5
3621.732	-15.5
3624.521	-23.5
3627.307	-36.5
3630.092	-27.5
3632.874	-9.5
3635.654	-18.5
3638.432	-29.5
3641.208	-26.5
3643.982	-24.5
3646.753	-13.5
3649.523	-50.5
3652.29	-25.5
3655.055	-24.5
3657.818	-22.5
3660.579	-29.5
3663.338	-35.5
3666.095	-32.5
3668.849	-53.5
3671.602	-22.5
3674.352	-41.5
3677.101	-19.5
3679.847	-23.5
3682.591	-37.5
3685.333	-40.5
3688.073	-29.5
3690.811	-36.5
3693.547	-38.5
3696.281	-40.5
3699.013	-27.5
3701.742	-36.5
3704.47	-42.5
3707.195	-25.5
3709.919	-21.5
3712.64	-28.5
3715.359	-40.5
3718.076	-19.5
3720.792	-35.5
3723.505	-26.5
3726.216	-15.5
3728.925	-31.5
3731.632	-35.5
3734.336	-28.5
3737.039	-32.5
3739.74	-28.5
3742.439	-55.5
3745.136	-23.5
3747.83	-26.5
3750.523	-27.5
3753.213	-94.5
3755.902	-34.5
3758.589	-46.5
3761.273	-34.5
3763.956	-24.5
3766.636	-49.5
3769.315	-22.5
3771.991	-32.5
3774.665	-36.5
3777.338	-33.5
3780.008	-47.5
3782.677	-33.5
3785.343	-50.5
3788.007	-49.5
3790.67	-31.5
3793.33	-41.5
3795.989	-37.5
3798.645	-32.5
3801.299	-50.5
3803.952	-45.5
3806.602	-39.5
3809.251	-27.5
3811.897	-37.5
3814.542	-33.5
3817.184	-37.5
3819.825	-30.5
3822.463	-44.5
3825.1	-38.5
3827.735	-34.5
3830.367	-43.5
3832.998	-19.5
3835.627	-34.5
3838.253	-24.5
3840.878	-34.5
3843.501	-15.5
3846.122	-26.5
3848.741	-25.5
3851.358	-24.5
3853.973	-44.5
3856.586	-21.5
3859.197	-39.5
3861.806	-33.5
3864.414	-45.5
3867.019	-28.5
3869.622	-26.5
3872.224	-20.5
3874.823	-14.5
3877.421	10.5
3880.016	18.5
3882.61	59.5
3885.202	64.5
3887.792	43.5
3890.38	14.5
3892.966	-18.5
3895.55	-35.5
3898.132	-29.5
3900.713	-26.5
3903.291	-29.5
3905.868	-40.5
3908.442	-32.5
3911.015	-34.5
3913.586	-37.5
3916.155	-33.5
3918.722	-41.5
3921.287	-40.5
3923.85	-47.5
3926.411	-36.5
3928.971	-41.5
3931.528	-33.5
3934.084	-37.5
3936.638	-44.5
3939.19	-29.5
3941.74	-32.5
3944.288	-34.5
3946.834	-33.5
3949.378	-21.5
3951.921	-38.5
3954.462	-34.5
3957	-32.5
3959.537	-24.5
3962.072	-36.5
3964.606	-52.5
3967.137	-32.5
3969.667	-36.5
3972.194	-28.5
3974.72	-36.5
3977.244	-60.5
3979.766	-43.5
3982.286	-44.5
3984.805	-28.5
3987.321	-26.5
3989.836	-28.5
3992.349	-39.5
3994.86	-32.5
3997.369	-42.5
3999.877	-39.5
4002.382	-36.5
4004.886	-34.5
4007.388	-34.5
4009.888	-23.5
4012.386	-29.5
4014.883	-32.5
4017.377	-32.5
4019.87	-29.5
4022.361	-41.5
4024.85	-33.5
4027.338	-33.5
4029.823	-38.5
4032.307	-32.5
4034.789	-37.5
4037.269	-26.5
4039.747	-45.5
4042.224	-26.5
4044.699	-35.5
4047.172	-35.5
4049.643	-28.5
4052.112	-58.5
4054.58	-27.5
4057.046	-41.5
4059.51	-32.5
4061.972	-32.5
4064.432	-48.5
4066.891	-19.5
4069.348	-27.5
4071.803	-29.5
4074.256	-36.5
4076.708	-25.5
4079.158	-29.5
4081.606	-24.5
4084.052	-32.5
4086.497	-29.5
4088.939	-33.5
4091.38	-36.5
4093.819	-27.5
4096.257	0.5
4098.693	-6.5
4101.127	-1.5
4103.559	2.5
4105.989	51.5
4108.418	57.5
4110.845	43.5
4113.27	53.5
4115.694	57.5
4118.115	42.5
4120.535	-33.5
4122.954	-26.5
4125.37	-22.5
4127.785	-30.5
4130.198	-27.5
4132.609	-32.5
4135.019	5.5
4137.427	-2.5
4139.833	4.5
4142.237	-2.5
