Data from 2018-3-6_conc=6_n=8_RamanShift_04.txt Node
Date: Tue Mar 06 15:17:18 GMT+02:00 2018
User: LAB3
Spectrometer: QEPB0276
Trigger mode: 0
Integration Time (sec): 3.000000E1
Scans to average: 1
Electric dark correction enabled: true
Nonlinearity correction enabled: false
Boxcar width: 0
XAxis mode: Raman Shifts
Number of Pixels in Spectrum: 1044
>>>>>Begin Spectral Data<<<<<
160.701	28.62
166.742	46.62
172.777	70.62
178.805	144.62
184.826	353.62
190.841	710.62
196.849	1100.62
202.85	1390.62
208.845	1465.62
214.833	1446.62
220.815	1409.62
226.789	1394.62
232.758	1409.62
238.719	1371.62
244.674	1328.62
250.623	1337.62
256.565	1294.62
262.5	1292.62
268.429	1277.62
274.351	1247.62
280.267	1249.62
286.176	1254.62
292.079	1250.62
297.975	1243.62
303.865	1236.62
309.748	1216.62
315.625	1214.62
321.495	1226.62
327.359	1225.62
333.217	1219.62
339.068	1220.62
344.912	1238.62
350.751	1208.62
356.583	1224.62
362.408	1243.62
368.227	1249.62
374.04	1237.62
379.847	1247.62
385.647	1260.62
391.44	1243.62
397.228	1253.62
403.009	1263.62
408.784	1262.62
414.553	1272.62
420.315	1273.62
426.071	1276.62
431.821	1279.62
437.565	1280.62
443.302	1255.62
449.033	1256.62
454.758	1270.62
460.477	1249.62
466.189	1234.62
471.896	1215.62
477.596	1218.62
483.29	1196.62
488.978	1185.62
494.66	1186.62
500.335	1154.62
506.005	1093.62
511.668	1047.62
517.325	975.62
522.977	947.62
528.622	923.62
534.261	901.62
539.894	884.62
545.521	866.62
551.141	825.62
556.756	840.62
562.365	814.62
567.968	827.62
573.565	807.62
579.155	823.62
584.74	815.62
590.319	805.62
595.892	814.62
601.459	813.62
607.02	811.62
612.575	799.62
618.124	785.62
623.667	771.62
629.204	776.62
634.735	752.62
640.261	747.62
645.781	719.62
651.294	725.62
656.802	738.62
662.304	738.62
667.8	743.62
673.29	718.62
678.775	731.62
684.254	713.62
689.726	710.62
695.193	711.62
700.655	708.62
706.11	696.62
711.56	691.62
717.004	691.62
722.442	672.62
727.874	691.62
733.301	703.62
738.722	670.62
744.137	687.62
749.547	671.62
754.951	677.62
760.349	663.62
765.741	685.62
771.128	679.62
776.509	697.62
781.885	714.62
787.254	720.62
792.618	721.62
797.977	727.62
803.33	721.62
808.677	697.62
814.019	716.62
819.355	709.62
824.686	686.62
830.011	681.62
835.33	695.62
840.644	698.62
845.952	675.62
851.255	684.62
856.552	671.62
861.844	657.62
867.13	634.62
872.41	634.62
877.686	640.62
882.955	635.62
888.219	624.62
893.478	611.62
898.731	605.62
903.979	607.62
909.221	581.62
914.458	590.62
919.69	595.62
924.916	589.62
930.136	594.62
935.351	588.62
940.561	587.62
945.766	589.62
950.965	600.62
956.158	580.62
961.347	572.62
966.529	567.62
971.707	579.62
976.879	554.62
982.046	556.62
987.208	537.62
992.364	559.62
997.515	554.62
1002.66	551.62
1007.801	548.62
1012.936	551.62
1018.066	544.62
1023.19	559.62
1028.309	557.62
1033.423	566.62
1038.532	573.62
1043.636	551.62
1048.734	567.62
1053.827	548.62
1058.915	541.62
1063.998	539.62
1069.075	528.62
1074.147	535.62
1079.214	524.62
1084.276	544.62
1089.333	536.62
1094.385	546.62
1099.431	532.62
1104.472	538.62
1109.509	515.62
1114.54	514.62
1119.565	514.62
1124.586	507.62
1129.602	502.62
1134.613	473.62
1139.618	499.62
1144.619	487.62
1149.614	493.62
1154.604	488.62
1159.589	494.62
1164.57	516.62
1169.545	510.62
1174.515	510.62
1179.48	490.62
1184.44	498.62
1189.395	503.62
1194.345	483.62
1199.29	493.62
1204.23	476.62
1209.165	464.62
1214.095	498.62
1219.021	484.62
1223.941	470.62
1228.856	478.62
1233.766	502.62
1238.672	504.62
1243.572	494.62
1248.467	489.62
1253.358	477.62
1258.244	467.62
1263.124	481.62
1268	475.62
1272.871	444.62
1277.737	458.62
1282.599	442.62
1287.455	444.62
1292.306	444.62
1297.153	435.62
1301.995	447.62
1306.832	440.62
1311.664	440.62
1316.491	431.62
1321.314	445.62
1326.132	441.62
1330.945	449.62
1335.753	433.62
1340.556	428.62
1345.354	410.62
1350.148	407.62
1354.937	413.62
1359.722	401.62
1364.501	392.62
1369.276	401.62
1374.046	403.62
1378.811	396.62
1383.572	409.62
1388.327	407.62
1393.079	382.62
1397.825	377.62
1402.567	391.62
1407.304	378.62
1412.036	369.62
1416.764	375.62
1421.487	371.62
1426.205	370.62
1430.919	382.62
1435.628	378.62
1440.333	372.62
1445.032	381.62
1449.727	383.62
1454.418	399.62
1459.104	392.62
1463.785	364.62
1468.462	395.62
1473.134	373.62
1477.802	366.62
1482.465	346.62
1487.123	357.62
1491.777	331.62
1496.426	343.62
1501.071	368.62
1505.711	351.62
1510.347	366.62
1514.978	358.62
1519.604	361.62
1524.226	373.62
1528.844	350.62
1533.457	366.62
1538.065	351.62
1542.669	349.62
1547.269	357.62
1551.864	350.62
1556.454	331.62
1561.041	347.62
1565.622	334.62
1570.199	345.62
1574.772	340.62
1579.34	350.62
1583.904	363.62
1588.464	363.62
1593.019	363.62
1597.569	346.62
1602.115	340.62
1606.657	346.62
1611.195	350.62
1615.728	364.62
1620.256	346.62
1624.78	330.62
1629.3	338.62
1633.816	348.62
1638.327	346.62
1642.834	347.62
1647.336	349.62
1651.834	362.62
1656.328	368.62
1660.817	352.62
1665.302	339.62
1669.783	336.62
1674.259	332.62
1678.732	324.62
1683.199	318.62
1687.663	306.62
1692.122	315.62
1696.577	307.62
1701.028	300.62
1705.474	293.62
1709.917	282.62
1714.355	286.62
1718.788	281.62
1723.218	266.62
1727.643	257.62
1732.064	269.62
1736.481	252.62
1740.893	264.62
1745.301	250.62
1749.705	216.62
1754.105	234.62
1758.501	225.62
1762.893	237.62
1767.28	205.62
1771.663	225.62
1776.042	221.62
1780.417	217.62
1784.787	221.62
1789.154	233.62
1793.516	223.62
1797.874	218.62
1802.228	202.62
1806.578	209.62
1810.924	224.62
1815.266	98.62
1819.603	212.62
1823.937	201.62
1828.266	207.62
1832.591	209.62
1836.913	204.62
1841.23	198.62
1845.543	196.62
1849.852	200.62
1854.156	198.62
1858.457	198.62
1862.754	201.62
1867.047	194.62
1871.335	213.62
1875.62	210.62
1879.9	205.62
1884.177	193.62
1888.449	199.62
1892.718	193.62
1896.982	209.62
1901.243	180.62
1905.499	187.62
1909.752	182.62
1914	174.62
1918.245	196.62
1922.485	197.62
1926.722	183.62
1930.954	182.62
1935.183	202.62
1939.408	198.62
1943.628	189.62
1947.845	185.62
1952.058	191.62
1956.267	172.62
1960.472	192.62
1964.673	185.62
1968.87	179.62
1973.063	177.62
1977.252	175.62
1981.438	174.62
1985.619	169.62
1989.797	162.62
1993.971	164.62
1998.14	176.62
2002.306	163.62
2006.469	172.62
2010.627	157.62
2014.781	158.62
2018.932	160.62
2023.078	182.62
2027.221	164.62
2031.36	154.62
2035.495	160.62
2039.627	159.62
2043.754	157.62
2047.878	143.62
2051.998	158.62
2056.114	144.62
2060.226	154.62
2064.334	149.62
2068.439	156.62
2072.54	160.62
2076.637	137.62
2080.73	140.62
2084.82	146.62
2088.906	141.62
2092.988	142.62
2097.066	151.62
2101.14	150.62
2105.211	150.62
2109.278	144.62
2113.342	144.62
2117.401	131.62
2121.457	125.62
2125.509	132.62
2129.558	143.62
2133.602	135.62
2137.643	132.62
2141.681	131.62
2145.714	133.62
2149.744	139.62
2153.77	134.62
2157.793	124.62
2161.812	98.62
2165.827	102.62
2169.838	131.62
2173.846	119.62
2177.851	117.62
2181.851	125.62
2185.848	112.62
2189.841	119.62
2193.831	106.62
2197.817	112.62
2201.799	109.62
2205.778	105.62
2209.753	101.62
2213.725	97.62
2217.693	106.62
2221.657	90.62
2225.618	111.62
2229.575	105.62
2233.529	110.62
2237.479	107.62
2241.425	97.62
2245.368	89.62
2249.307	100.62
2253.243	91.62
2257.175	104.62
2261.104	87.62
2265.029	93.62
2268.95	90.62
2272.868	88.62
2276.783	84.62
2280.694	89.62
2284.601	92.62
2288.505	85.62
2292.405	93.62
2296.302	66.62
2300.195	79.62
2304.085	52.62
2307.971	83.62
2311.854	57.62
2315.734	71.62
2319.609	79.62
2323.482	59.62
2327.351	63.62
2331.216	68.62
2335.078	73.62
2338.937	63.62
2342.792	58.62
2346.643	64.62
2350.492	68.62
2354.336	62.62
2358.178	66.62
2362.015	76.62
2365.85	65.62
2369.681	68.62
2373.508	72.62
2377.333	75.62
2381.153	69.62
2384.971	66.62
2388.785	64.62
2392.595	58.62
2396.402	60.62
2400.206	39.62
2404.007	52.62
2407.804	60.62
2411.597	57.62
2415.388	54.62
2419.174	56.62
2422.958	50.62
2426.738	56.62
2430.515	59.62
2434.289	53.62
2438.059	51.62
2441.825	56.62
2445.589	61.62
2449.349	37.62
2453.106	57.62
2456.859	52.62
2460.61	56.62
2464.356	37.62
2468.1	35.62
2471.84	41.62
2475.577	40.62
2479.311	37.62
2483.041	40.62
2486.768	55.62
2490.492	59.62
2494.213	46.62
2497.93	30.62
2501.644	34.62
2505.355	41.62
2509.062	34.62
2512.766	46.62
2516.467	33.62
2520.165	41.62
2523.859	29.62
2527.551	61.62
2531.239	26.62
2534.923	41.62
2538.605	36.62
2542.283	45.62
2545.958	42.62
2549.63	48.62
2553.299	50.62
2556.964	29.62
2560.626	38.62
2564.285	39.62
2567.941	22.62
2571.594	29.62
2575.243	35.62
2578.89	35.62
2582.533	31.62
2586.173	30.62
2589.809	32.62
2593.443	13.62
2597.073	30.62
2600.701	33.62
2604.325	28.62
2607.946	23.62
2611.564	33.62
2615.178	29.62
2618.79	30.62
2622.398	19.62
2626.004	28.62
2629.606	32.62
2633.205	20.62
2636.801	30.62
2640.394	27.62
2643.983	27.62
2647.57	24.62
2651.153	19.62
2654.734	33.62
2658.311	7.62
2661.885	18.62
2665.456	20.62
2669.025	25.62
2672.589	12.62
2676.151	29.62
2679.71	33.62
2683.266	18.62
2686.819	12.62
2690.368	21.62
2693.915	21.62
2697.458	19.62
2700.999	29.62
2704.536	21.62
2708.071	19.62
2711.602	20.62
2715.13	18.62
2718.656	-3.38
2722.178	17.62
2725.697	2.62
2729.214	6.62
2732.727	13.62
2736.237	-3.38
2739.744	5.62
2743.249	4.62
2746.75	10.62
2750.248	7.62
2753.743	14.62
2757.236	16.62
2760.725	18.62
2764.211	-13.38
2767.695	16.62
2771.175	11.62
2774.652	14.62
2778.127	0.62
2781.598	11.62
2785.067	11.62
2788.532	-2.38
2791.995	17.62
2795.455	1.62
2798.911	21.62
2802.365	6.62
2805.816	12.62
2809.264	17.62
2812.709	3.62
2816.151	12.62
2819.59	0.62
2823.026	12.62
2826.46	8.62
2829.89	20.62
2833.318	-11.38
2836.742	9.62
2840.164	4.62
2843.583	14.62
2846.999	8.62
2850.412	12.62
2853.822	7.62
2857.229	17.62
2860.634	10.62
2864.035	-4.38
2867.434	20.62
2870.83	15.62
2874.223	8.62
2877.613	7.62
2881	0.62
2884.385	6.62
2887.766	6.62
2891.145	9.62
2894.521	4.62
2897.894	-4.38
2901.264	15.62
2904.631	6.62
2907.996	15.62
2911.358	18.62
2914.717	9.62
2918.073	13.62
2921.426	4.62
2924.777	-4.38
2928.124	5.62
2931.469	21.62
2934.811	0.62
2938.15	30.62
2941.487	14.62
2944.821	30.62
2948.152	18.62
2951.48	28.62
2954.805	3.62
2958.128	36.62
2961.447	15.62
2964.765	33.62
2968.079	15.62
2971.39	29.62
2974.699	30.62
2978.005	25.62
2981.308	22.62
2984.609	16.62
2987.907	27.62
2991.202	36.62
2994.494	16.62
2997.784	20.62
3001.07	23.62
3004.355	19.62
3007.636	25.62
3010.915	25.62
3014.191	20.62
3017.464	24.62
3020.734	28.62
3024.002	22.62
3027.267	26.62
3030.53	32.62
3033.789	22.62
3037.046	27.62
3040.301	19.62
3043.552	27.62
3046.801	33.62
3050.048	40.62
3053.291	56.62
3056.532	44.62
3059.771	31.62
3063.006	44.62
3066.239	40.62
3069.469	44.62
3072.697	39.62
3075.922	38.62
3079.144	41.62
3082.364	71.62
3085.581	50.62
3088.795	63.62
3092.007	61.62
3095.216	67.62
3098.423	54.62
3101.627	42.62
3104.828	54.62
3108.026	62.62
3111.222	72.62
3114.416	75.62
3117.607	71.62
3120.795	73.62
3123.98	72.62
3127.163	61.62
3130.344	78.62
3133.521	66.62
3136.696	89.62
3139.869	83.62
3143.039	70.62
3146.206	99.62
3149.371	93.62
3152.533	83.62
3155.693	68.62
3158.85	87.62
3162.005	94.62
3165.157	88.62
3168.306	96.62
3171.453	99.62
3174.597	83.62
3177.739	77.62
3180.878	97.62
3184.014	92.62
3187.149	91.62
3190.28	92.62
3193.409	100.62
3196.536	97.62
3199.659	106.62
3202.781	105.62
3205.9	81.62
3209.016	100.62
3212.13	98.62
3215.241	94.62
3218.35	94.62
3221.456	87.62
3224.56	86.62
3227.661	91.62
3230.76	82.62
3233.856	83.62
3236.95	90.62
3240.041	81.62
3243.13	89.62
3246.216	86.62
3249.3	85.62
3252.382	87.62
3255.46	76.62
3258.537	26.62
3261.611	68.62
3264.682	76.62
3267.751	76.62
3270.818	68.62
3273.882	82.62
3276.943	70.62
3280.002	91.62
3283.059	73.62
3286.113	65.62
3289.165	70.62
3292.214	61.62
3295.261	81.62
3298.306	56.62
3301.348	73.62
3304.387	62.62
3307.425	74.62
3310.459	66.62
3313.492	72.62
3316.521	60.62
3319.549	78.62
3322.574	73.62
3325.597	67.62
3328.617	65.62
3331.635	68.62
3334.65	46.62
3337.663	65.62
3340.674	62.62
3343.682	63.62
3346.688	73.62
3349.691	52.62
3352.692	58.62
3355.691	70.62
3358.687	63.62
3361.681	62.62
3364.673	53.62
3367.662	64.62
3370.649	68.62
3373.633	45.62
3376.615	59.62
3379.595	36.62
3382.572	52.62
3385.547	43.62
3388.52	42.62
3391.49	45.62
3394.458	49.62
3397.424	51.62
3400.387	35.62
3403.348	44.62
3406.307	42.62
3409.263	42.62
3412.217	47.62
3415.168	49.62
3418.118	52.62
3421.065	38.62
3424.009	60.62
3426.951	41.62
3429.891	43.62
3432.829	36.62
3435.764	44.62
3438.697	34.62
3441.628	43.62
3444.557	23.62
3447.483	25.62
3450.407	38.62
3453.328	22.62
3456.247	26.62
3459.164	18.62
3462.079	36.62
3464.991	28.62
3467.902	22.62
3470.809	21.62
3473.715	26.62
3476.618	16.62
3479.519	18.62
3482.418	-0.38
3485.315	2.62
3488.209	3.62
3491.101	7.62
3493.99	-2.38
3496.878	1.62
3499.763	7.62
3502.646	2.62
3505.527	-4.38
3508.405	1.62
3511.281	-11.38
3514.155	-1.38
3517.027	-4.38
3519.897	-13.38
3522.764	2.62
3525.629	-16.38
3528.492	-3.38
3531.352	-5.38
3534.211	-10.38
3537.067	-9.38
3539.921	-10.38
3542.773	-5.38
3545.622	-17.38
3548.469	-17.38
3551.315	-24.38
3554.157	-14.38
3556.998	-27.38
3559.837	-22.38
3562.673	-10.38
3565.507	-27.38
3568.339	-25.38
3571.169	-19.38
3573.996	-18.38
3576.822	-33.38
3579.645	-30.38
3582.466	-26.38
3585.285	-21.38
3588.101	-26.38
3590.916	-28.38
3593.728	-20.38
3596.538	-30.38
3599.346	-24.38
3602.152	-34.38
3604.956	-31.38
3607.757	-23.38
3610.556	-39.38
3613.354	-20.38
3616.149	-23.38
3618.942	-23.38
3621.732	-27.38
3624.521	-32.38
3627.307	-31.38
3630.092	-35.38
3632.874	-13.38
3635.654	-26.38
3638.432	-33.38
3641.208	-34.38
3643.982	-27.38
3646.753	-17.38
3649.523	-54.38
3652.29	-32.38
3655.055	-23.38
3657.818	-25.38
3660.579	-35.38
3663.338	-39.38
3666.095	-35.38
3668.849	-59.38
3671.602	-29.38
3674.352	-41.38
3677.101	-26.38
3679.847	-23.38
3682.591	-43.38
3685.333	-45.38
3688.073	-30.38
3690.811	-44.38
3693.547	-51.38
3696.281	-49.38
3699.013	-34.38
3701.742	-32.38
3704.47	-43.38
3707.195	-29.38
3709.919	-35.38
3712.64	-41.38
3715.359	-42.38
3718.076	-25.38
3720.792	-33.38
3723.505	-33.38
3726.216	-22.38
3728.925	-34.38
3731.632	-40.38
3734.336	-31.38
3737.039	-29.38
3739.74	-36.38
3742.439	-61.38
3745.136	-30.38
3747.83	-24.38
3750.523	-28.38
3753.213	-104.38
3755.902	-34.38
3758.589	-48.38
3761.273	-39.38
3763.956	-29.38
3766.636	-50.38
3769.315	-26.38
3771.991	-39.38
3774.665	-42.38
3777.338	-33.38
3780.008	-47.38
3782.677	-38.38
3785.343	-58.38
3788.007	-57.38
3790.67	-31.38
3793.33	-47.38
3795.989	-43.38
3798.645	-34.38
3801.299	-47.38
3803.952	-48.38
3806.602	-38.38
3809.251	-30.38
3811.897	-35.38
3814.542	-37.38
3817.184	-38.38
3819.825	-36.38
3822.463	-45.38
3825.1	-42.38
3827.735	-32.38
3830.367	-47.38
3832.998	-22.38
3835.627	-36.38
3838.253	-27.38
3840.878	-36.38
3843.501	-22.38
3846.122	-31.38
3848.741	-27.38
3851.358	-26.38
3853.973	-46.38
3856.586	-28.38
3859.197	-38.38
3861.806	-36.38
3864.414	-47.38
3867.019	-38.38
3869.622	-31.38
3872.224	-28.38
3874.823	-22.38
3877.421	-4.38
3880.016	-1.38
3882.61	31.62
3885.202	35.62
3887.792	24.62
3890.38	-1.38
3892.966	-23.38
3895.55	-44.38
3898.132	-30.38
3900.713	-30.38
3903.291	-30.38
3905.868	-40.38
3908.442	-31.38
3911.015	-34.38
3913.586	-38.38
3916.155	-36.38
3918.722	-39.38
3921.287	-36.38
3923.85	-43.38
3926.411	-41.38
3928.971	-41.38
3931.528	-31.38
3934.084	-36.38
3936.638	-50.38
3939.19	-34.38
3941.74	-35.38
3944.288	-39.38
3946.834	-34.38
3949.378	-30.38
3951.921	-40.38
3954.462	-37.38
3957	-35.38
3959.537	-28.38
3962.072	-39.38
3964.606	-55.38
3967.137	-39.38
3969.667	-44.38
3972.194	-30.38
3974.72	-40.38
3977.244	-61.38
3979.766	-42.38
3982.286	-42.38
3984.805	-34.38
3987.321	-29.38
3989.836	-32.38
3992.349	-43.38
3994.86	-38.38
3997.369	-43.38
3999.877	-35.38
4002.382	-38.38
4004.886	-30.38
4007.388	-33.38
4009.888	-26.38
4012.386	-32.38
4014.883	-31.38
4017.377	-35.38
4019.87	-28.38
4022.361	-38.38
4024.85	-31.38
4027.338	-33.38
4029.823	-41.38
4032.307	-35.38
4034.789	-37.38
4037.269	-29.38
4039.747	-48.38
4042.224	-26.38
4044.699	-44.38
4047.172	-43.38
4049.643	-30.38
4052.112	-61.38
4054.58	-34.38
4057.046	-49.38
4059.51	-33.38
4061.972	-39.38
4064.432	-52.38
4066.891	-23.38
4069.348	-34.38
4071.803	-34.38
4074.256	-42.38
4076.708	-32.38
4079.158	-38.38
4081.606	-32.38
4084.052	-38.38
4086.497	-29.38
4088.939	-41.38
4091.38	-41.38
4093.819	-33.38
4096.257	1.62
4098.693	-7.38
4101.127	-8.38
4103.559	-0.38
4105.989	42.62
4108.418	38.62
4110.845	31.62
4113.27	29.62
4115.694	41.62
4118.115	24.62
4120.535	-35.38
4122.954	-26.38
4125.37	-24.38
4127.785	-33.38
4130.198	-26.38
4132.609	-31.38
4135.019	7.62
4137.427	1.62
4139.833	7.62
4142.237	-2.38
