Data from 2018-3-6_conc=6_n=4_RamanShift_01.txt Node
Date: Tue Mar 06 15:02:48 GMT+02:00 2018
User: LAB3
Spectrometer: QEPB0276
Trigger mode: 0
Integration Time (sec): 3.000000E1
Scans to average: 1
Electric dark correction enabled: true
Nonlinearity correction enabled: false
Boxcar width: 0
XAxis mode: Raman Shifts
Number of Pixels in Spectrum: 1044
>>>>>Begin Spectral Data<<<<<
160.701	47.25
166.742	69.25
172.777	89.25
178.805	171.25
184.826	395.25
190.841	784.25
196.849	1239.25
202.85	1557.25
208.845	1661.25
214.833	1653.25
220.815	1611.25
226.789	1592.25
232.758	1587.25
238.719	1568.25
244.674	1533.25
250.623	1529.25
256.565	1498.25
262.5	1467.25
268.429	1452.25
274.351	1449.25
280.267	1428.25
286.176	1428.25
292.079	1428.25
297.975	1418.25
303.865	1411.25
309.748	1429.25
315.625	1410.25
321.495	1410.25
327.359	1421.25
333.217	1417.25
339.068	1401.25
344.912	1424.25
350.751	1420.25
356.583	1419.25
362.408	1434.25
368.227	1440.25
374.04	1446.25
379.847	1445.25
385.647	1464.25
391.44	1435.25
397.228	1451.25
403.009	1468.25
408.784	1463.25
414.553	1482.25
420.315	1476.25
426.071	1471.25
431.821	1483.25
437.565	1479.25
443.302	1456.25
449.033	1463.25
454.758	1459.25
460.477	1438.25
466.189	1425.25
471.896	1418.25
477.596	1389.25
483.29	1384.25
488.978	1386.25
494.66	1385.25
500.335	1326.25
506.005	1254.25
511.668	1206.25
517.325	1122.25
522.977	1082.25
528.622	1044.25
534.261	1012.25
539.894	1000.25
545.521	974.25
551.141	944.25
556.756	940.25
562.365	942.25
567.968	920.25
573.565	903.25
579.155	931.25
584.74	903.25
590.319	911.25
595.892	907.25
601.459	924.25
607.02	903.25
612.575	899.25
618.124	899.25
623.667	875.25
629.204	852.25
634.735	841.25
640.261	829.25
645.781	808.25
651.294	820.25
656.802	814.25
662.304	827.25
667.8	832.25
673.29	814.25
678.775	810.25
684.254	807.25
689.726	791.25
695.193	808.25
700.655	791.25
706.11	787.25
711.56	780.25
717.004	793.25
722.442	761.25
727.874	782.25
733.301	786.25
738.722	761.25
744.137	773.25
749.547	752.25
754.951	753.25
760.349	760.25
765.741	767.25
771.128	774.25
776.509	773.25
781.885	813.25
787.254	807.25
792.618	801.25
797.977	812.25
803.33	809.25
808.677	786.25
814.019	792.25
819.355	773.25
824.686	774.25
830.011	760.25
835.33	783.25
840.644	774.25
845.952	740.25
851.255	754.25
856.552	737.25
861.844	733.25
867.13	721.25
872.41	708.25
877.686	713.25
882.955	712.25
888.219	707.25
893.478	684.25
898.731	693.25
903.979	667.25
909.221	661.25
914.458	653.25
919.69	648.25
924.916	658.25
930.136	663.25
935.351	659.25
940.561	659.25
945.766	674.25
950.965	661.25
956.158	645.25
961.347	631.25
966.529	633.25
971.707	619.25
976.879	625.25
982.046	605.25
987.208	598.25
992.364	604.25
997.515	610.25
1002.66	613.25
1007.801	606.25
1012.936	620.25
1018.066	601.25
1023.19	645.25
1028.309	621.25
1033.423	633.25
1038.532	639.25
1043.636	621.25
1048.734	620.25
1053.827	606.25
1058.915	600.25
1063.998	608.25
1069.075	601.25
1074.147	602.25
1079.214	581.25
1084.276	606.25
1089.333	607.25
1094.385	605.25
1099.431	597.25
1104.472	593.25
1109.509	585.25
1114.54	576.25
1119.565	574.25
1124.586	576.25
1129.602	560.25
1134.613	534.25
1139.618	544.25
1144.619	541.25
1149.614	553.25
1154.604	551.25
1159.589	539.25
1164.57	563.25
1169.545	568.25
1174.515	565.25
1179.48	559.25
1184.44	564.25
1189.395	562.25
1194.345	539.25
1199.29	554.25
1204.23	527.25
1209.165	528.25
1214.095	544.25
1219.021	535.25
1223.941	539.25
1228.856	546.25
1233.766	547.25
1238.672	560.25
1243.572	556.25
1248.467	544.25
1253.358	534.25
1258.244	507.25
1263.124	539.25
1268	524.25
1272.871	491.25
1277.737	507.25
1282.599	490.25
1287.455	481.25
1292.306	488.25
1297.153	485.25
1301.995	497.25
1306.832	487.25
1311.664	491.25
1316.491	490.25
1321.314	503.25
1326.132	486.25
1330.945	480.25
1335.753	484.25
1340.556	472.25
1345.354	472.25
1350.148	462.25
1354.937	459.25
1359.722	437.25
1364.501	442.25
1369.276	449.25
1374.046	452.25
1378.811	441.25
1383.572	440.25
1388.327	443.25
1393.079	429.25
1397.825	426.25
1402.567	426.25
1407.304	428.25
1412.036	421.25
1416.764	416.25
1421.487	404.25
1426.205	416.25
1430.919	421.25
1435.628	413.25
1440.333	405.25
1445.032	418.25
1449.727	430.25
1454.418	431.25
1459.104	428.25
1463.785	413.25
1468.462	424.25
1473.134	418.25
1477.802	410.25
1482.465	398.25
1487.123	399.25
1491.777	375.25
1496.426	368.25
1501.071	400.25
1505.711	383.25
1510.347	398.25
1514.978	393.25
1519.604	390.25
1524.226	401.25
1528.844	379.25
1533.457	387.25
1538.065	383.25
1542.669	377.25
1547.269	388.25
1551.864	386.25
1556.454	368.25
1561.041	374.25
1565.622	378.25
1570.199	381.25
1574.772	384.25
1579.34	386.25
1583.904	398.25
1588.464	403.25
1593.019	407.25
1597.569	387.25
1602.115	392.25
1606.657	386.25
1611.195	402.25
1615.728	397.25
1620.256	374.25
1624.78	368.25
1629.3	376.25
1633.816	389.25
1638.327	386.25
1642.834	386.25
1647.336	389.25
1651.834	394.25
1656.328	395.25
1660.817	386.25
1665.302	371.25
1669.783	368.25
1674.259	367.25
1678.732	368.25
1683.199	354.25
1687.663	338.25
1692.122	342.25
1696.577	331.25
1701.028	330.25
1705.474	306.25
1709.917	301.25
1714.355	298.25
1718.788	301.25
1723.218	285.25
1727.643	278.25
1732.064	291.25
1736.481	266.25
1740.893	288.25
1745.301	266.25
1749.705	249.25
1754.105	263.25
1758.501	254.25
1762.893	259.25
1767.28	236.25
1771.663	234.25
1776.042	237.25
1780.417	238.25
1784.787	243.25
1789.154	251.25
1793.516	241.25
1797.874	230.25
1802.228	226.25
1806.578	219.25
1810.924	242.25
1815.266	123.25
1819.603	235.25
1823.937	220.25
1828.266	224.25
1832.591	215.25
1836.913	216.25
1841.23	211.25
1845.543	208.25
1849.852	220.25
1854.156	212.25
1858.457	213.25
1862.754	206.25
1867.047	213.25
1871.335	225.25
1875.62	227.25
1879.9	223.25
1884.177	212.25
1888.449	211.25
1892.718	218.25
1896.982	217.25
1901.243	202.25
1905.499	208.25
1909.752	202.25
1914	185.25
1918.245	212.25
1922.485	216.25
1926.722	202.25
1930.954	193.25
1935.183	199.25
1939.408	213.25
1943.628	205.25
1947.845	210.25
1952.058	204.25
1956.267	186.25
1960.472	207.25
1964.673	195.25
1968.87	195.25
1973.063	193.25
1977.252	191.25
1981.438	186.25
1985.619	178.25
1989.797	175.25
1993.971	178.25
1998.14	188.25
2002.306	174.25
2006.469	192.25
2010.627	169.25
2014.781	171.25
2018.932	167.25
2023.078	187.25
2027.221	176.25
2031.36	169.25
2035.495	175.25
2039.627	164.25
2043.754	164.25
2047.878	161.25
2051.998	162.25
2056.114	162.25
2060.226	159.25
2064.334	166.25
2068.439	179.25
2072.54	172.25
2076.637	166.25
2080.73	167.25
2084.82	171.25
2088.906	163.25
2092.988	154.25
2097.066	165.25
2101.14	172.25
2105.211	158.25
2109.278	155.25
2113.342	151.25
2117.401	138.25
2121.457	143.25
2125.509	129.25
2129.558	149.25
2133.602	139.25
2137.643	146.25
2141.681	142.25
2145.714	149.25
2149.744	150.25
2153.77	139.25
2157.793	131.25
2161.812	114.25
2165.827	117.25
2169.838	143.25
2173.846	130.25
2177.851	130.25
2181.851	138.25
2185.848	129.25
2189.841	129.25
2193.831	126.25
2197.817	128.25
2201.799	120.25
2205.778	110.25
2209.753	114.25
2213.725	111.25
2217.693	121.25
2221.657	115.25
2225.618	124.25
2229.575	116.25
2233.529	120.25
2237.479	121.25
2241.425	112.25
2245.368	103.25
2249.307	118.25
2253.243	104.25
2257.175	109.25
2261.104	102.25
2265.029	103.25
2268.95	106.25
2272.868	99.25
2276.783	95.25
2280.694	100.25
2284.601	105.25
2288.505	100.25
2292.405	107.25
2296.302	75.25
2300.195	84.25
2304.085	59.25
2307.971	92.25
2311.854	72.25
2315.734	87.25
2319.609	91.25
2323.482	68.25
2327.351	79.25
2331.216	73.25
2335.078	81.25
2338.937	83.25
2342.792	70.25
2346.643	70.25
2350.492	82.25
2354.336	70.25
2358.178	75.25
2362.015	77.25
2365.85	67.25
2369.681	72.25
2373.508	76.25
2377.333	82.25
2381.153	79.25
2384.971	71.25
2388.785	80.25
2392.595	63.25
2396.402	65.25
2400.206	41.25
2404.007	62.25
2407.804	71.25
2411.597	68.25
2415.388	68.25
2419.174	61.25
2422.958	67.25
2426.738	64.25
2430.515	69.25
2434.289	53.25
2438.059	55.25
2441.825	61.25
2445.589	71.25
2449.349	49.25
2453.106	52.25
2456.859	61.25
2460.61	66.25
2464.356	48.25
2468.1	53.25
2471.84	49.25
2475.577	50.25
2479.311	50.25
2483.041	49.25
2486.768	66.25
2490.492	61.25
2494.213	60.25
2497.93	44.25
2501.644	40.25
2505.355	55.25
2509.062	49.25
2512.766	51.25
2516.467	44.25
2520.165	44.25
2523.859	34.25
2527.551	69.25
2531.239	39.25
2534.923	48.25
2538.605	42.25
2542.283	45.25
2545.958	42.25
2549.63	51.25
2553.299	52.25
2556.964	32.25
2560.626	34.25
2564.285	40.25
2567.941	29.25
2571.594	30.25
2575.243	44.25
2578.89	39.25
2582.533	44.25
2586.173	41.25
2589.809	47.25
2593.443	20.25
2597.073	37.25
2600.701	42.25
2604.325	35.25
2607.946	25.25
2611.564	48.25
2615.178	44.25
2618.79	43.25
2622.398	28.25
2626.004	40.25
2629.606	43.25
2633.205	26.25
2636.801	36.25
2640.394	30.25
2643.983	29.25
2647.57	26.25
2651.153	23.25
2654.734	35.25
2658.311	5.25
2661.885	18.25
2665.456	24.25
2669.025	30.25
2672.589	22.25
2676.151	39.25
2679.71	42.25
2683.266	25.25
2686.819	21.25
2690.368	31.25
2693.915	32.25
2697.458	34.25
2700.999	38.25
2704.536	33.25
2708.071	26.25
2711.602	30.25
2715.13	23.25
2718.656	14.25
2722.178	26.25
2725.697	10.25
2729.214	16.25
2732.727	24.25
2736.237	2.25
2739.744	10.25
2743.249	10.25
2746.75	17.25
2750.248	8.25
2753.743	16.25
2757.236	13.25
2760.725	24.25
2764.211	-10.75
2767.695	19.25
2771.175	13.25
2774.652	17.25
2778.127	13.25
2781.598	15.25
2785.067	15.25
2788.532	10.25
2791.995	16.25
2795.455	13.25
2798.911	23.25
2802.365	11.25
2805.816	18.25
2809.264	24.25
2812.709	13.25
2816.151	24.25
2819.59	9.25
2823.026	14.25
2826.46	18.25
2829.89	28.25
2833.318	1.25
2836.742	11.25
2840.164	15.25
2843.583	14.25
2846.999	15.25
2850.412	21.25
2853.822	9.25
2857.229	28.25
2860.634	18.25
2864.035	1.25
2867.434	21.25
2870.83	22.25
2874.223	8.25
2877.613	11.25
2881	4.25
2884.385	5.25
2887.766	21.25
2891.145	14.25
2894.521	16.25
2897.894	5.25
2901.264	24.25
2904.631	25.25
2907.996	27.25
2911.358	27.25
2914.717	22.25
2918.073	24.25
2921.426	18.25
2924.777	13.25
2928.124	16.25
2931.469	37.25
2934.811	12.25
2938.15	34.25
2941.487	23.25
2944.821	39.25
2948.152	27.25
2951.48	24.25
2954.805	17.25
2958.128	34.25
2961.447	25.25
2964.765	39.25
2968.079	27.25
2971.39	31.25
2974.699	35.25
2978.005	33.25
2981.308	30.25
2984.609	24.25
2987.907	37.25
2991.202	40.25
2994.494	30.25
2997.784	35.25
3001.07	36.25
3004.355	31.25
3007.636	34.25
3010.915	31.25
3014.191	35.25
3017.464	38.25
3020.734	40.25
3024.002	44.25
3027.267	42.25
3030.53	35.25
3033.789	39.25
3037.046	38.25
3040.301	27.25
3043.552	43.25
3046.801	43.25
3050.048	54.25
3053.291	64.25
3056.532	49.25
3059.771	36.25
3063.006	56.25
3066.239	47.25
3069.469	54.25
3072.697	51.25
3075.922	45.25
3079.144	53.25
3082.364	70.25
3085.581	58.25
3088.795	78.25
3092.007	73.25
3095.216	75.25
3098.423	70.25
3101.627	48.25
3104.828	82.25
3108.026	69.25
3111.222	95.25
3114.416	95.25
3117.607	89.25
3120.795	87.25
3123.98	95.25
3127.163	79.25
3130.344	90.25
3133.521	81.25
3136.696	99.25
3139.869	99.25
3143.039	81.25
3146.206	114.25
3149.371	111.25
3152.533	102.25
3155.693	96.25
3158.85	108.25
3162.005	114.25
3165.157	106.25
3168.306	104.25
3171.453	114.25
3174.597	100.25
3177.739	95.25
3180.878	109.25
3184.014	114.25
3187.149	109.25
3190.28	117.25
3193.409	121.25
3196.536	117.25
3199.659	121.25
3202.781	127.25
3205.9	111.25
3209.016	117.25
3212.13	114.25
3215.241	115.25
3218.35	115.25
3221.456	105.25
3224.56	100.25
3227.661	101.25
3230.76	106.25
3233.856	98.25
3236.95	105.25
3240.041	85.25
3243.13	101.25
3246.216	99.25
3249.3	100.25
3252.382	100.25
3255.46	95.25
3258.537	43.25
3261.611	90.25
3264.682	95.25
3267.751	95.25
3270.818	84.25
3273.882	101.25
3276.943	91.25
3280.002	108.25
3283.059	87.25
3286.113	91.25
3289.165	87.25
3292.214	86.25
3295.261	98.25
3298.306	76.25
3301.348	94.25
3304.387	76.25
3307.425	87.25
3310.459	79.25
3313.492	89.25
3316.521	76.25
3319.549	86.25
3322.574	83.25
3325.597	81.25
3328.617	72.25
3331.635	78.25
3334.65	60.25
3337.663	74.25
3340.674	69.25
3343.682	78.25
3346.688	80.25
3349.691	72.25
3352.692	71.25
3355.691	80.25
3358.687	79.25
3361.681	80.25
3364.673	75.25
3367.662	80.25
3370.649	84.25
3373.633	63.25
3376.615	72.25
3379.595	52.25
3382.572	64.25
3385.547	59.25
3388.52	53.25
3391.49	61.25
3394.458	57.25
3397.424	62.25
3400.387	53.25
3403.348	58.25
3406.307	60.25
3409.263	53.25
3412.217	66.25
3415.168	62.25
3418.118	63.25
3421.065	51.25
3424.009	66.25
3426.951	49.25
3429.891	47.25
3432.829	47.25
3435.764	60.25
3438.697	44.25
3441.628	55.25
3444.557	32.25
3447.483	38.25
3450.407	51.25
3453.328	37.25
3456.247	37.25
3459.164	25.25
3462.079	39.25
3464.991	32.25
3467.902	29.25
3470.809	32.25
3473.715	31.25
3476.618	23.25
3479.519	27.25
3482.418	5.25
3485.315	13.25
3488.209	15.25
3491.101	17.25
3493.99	-0.75
3496.878	3.25
3499.763	15.25
3502.646	20.25
3505.527	2.25
3508.405	5.25
3511.281	-5.75
3514.155	8.25
3517.027	2.25
3519.897	-5.75
3522.764	5.25
3525.629	-9.75
3528.492	-0.75
3531.352	-0.75
3534.211	-4.75
3537.067	-7.75
3539.921	-6.75
3542.773	0.25
3545.622	-14.75
3548.469	-19.75
3551.315	-19.75
3554.157	-9.75
3556.998	-23.75
3559.837	-16.75
3562.673	-6.75
3565.507	-16.75
3568.339	-20.75
3571.169	-25.75
3573.996	-13.75
3576.822	-35.75
3579.645	-22.75
3582.466	-21.75
3585.285	-11.75
3588.101	-19.75
3590.916	-23.75
3593.728	-13.75
3596.538	-22.75
3599.346	-15.75
3602.152	-32.75
3604.956	-21.75
3607.757	-20.75
3610.556	-32.75
3613.354	-16.75
3616.149	-21.75
3618.942	-15.75
3621.732	-15.75
3624.521	-32.75
3627.307	-34.75
3630.092	-32.75
3632.874	-13.75
3635.654	-25.75
3638.432	-34.75
3641.208	-28.75
3643.982	-26.75
3646.753	-18.75
3649.523	-49.75
3652.29	-27.75
3655.055	-19.75
3657.818	-24.75
3660.579	-25.75
3663.338	-39.75
3666.095	-31.75
3668.849	-53.75
3671.602	-22.75
3674.352	-43.75
3677.101	-20.75
3679.847	-22.75
3682.591	-38.75
3685.333	-41.75
3688.073	-27.75
3690.811	-38.75
3693.547	-43.75
3696.281	-46.75
3699.013	-34.75
3701.742	-37.75
3704.47	-47.75
3707.195	-31.75
3709.919	-32.75
3712.64	-38.75
3715.359	-44.75
3718.076	-24.75
3720.792	-31.75
3723.505	-29.75
3726.216	-17.75
3728.925	-32.75
3731.632	-36.75
3734.336	-29.75
3737.039	-27.75
3739.74	-30.75
3742.439	-55.75
3745.136	-29.75
3747.83	-28.75
3750.523	-28.75
3753.213	-97.75
3755.902	-31.75
3758.589	-51.75
3761.273	-37.75
3763.956	-25.75
3766.636	-47.75
3769.315	-25.75
3771.991	-39.75
3774.665	-37.75
3777.338	-36.75
3780.008	-40.75
3782.677	-31.75
3785.343	-50.75
3788.007	-52.75
3790.67	-24.75
3793.33	-42.75
3795.989	-36.75
3798.645	-26.75
3801.299	-43.75
3803.952	-38.75
3806.602	-34.75
3809.251	-25.75
3811.897	-31.75
3814.542	-34.75
3817.184	-36.75
3819.825	-32.75
3822.463	-39.75
3825.1	-40.75
3827.735	-33.75
3830.367	-43.75
3832.998	-22.75
3835.627	-35.75
3838.253	-27.75
3840.878	-39.75
3843.501	-20.75
3846.122	-31.75
3848.741	-31.75
3851.358	-25.75
3853.973	-44.75
3856.586	-24.75
3859.197	-39.75
3861.806	-28.75
3864.414	-46.75
3867.019	-31.75
3869.622	-27.75
3872.224	-24.75
3874.823	-11.75
3877.421	7.25
3880.016	12.25
3882.61	39.25
3885.202	52.25
3887.792	31.25
3890.38	3.25
3892.966	-23.75
3895.55	-33.75
3898.132	-30.75
3900.713	-25.75
3903.291	-32.75
3905.868	-42.75
3908.442	-38.75
3911.015	-32.75
3913.586	-41.75
3916.155	-35.75
3918.722	-41.75
3921.287	-37.75
3923.85	-45.75
3926.411	-43.75
3928.971	-42.75
3931.528	-32.75
3934.084	-37.75
3936.638	-45.75
3939.19	-26.75
3941.74	-30.75
3944.288	-36.75
3946.834	-34.75
3949.378	-26.75
3951.921	-33.75
3954.462	-35.75
3957	-30.75
3959.537	-23.75
3962.072	-37.75
3964.606	-46.75
3967.137	-37.75
3969.667	-39.75
3972.194	-23.75
3974.72	-36.75
3977.244	-55.75
3979.766	-44.75
3982.286	-44.75
3984.805	-30.75
3987.321	-26.75
3989.836	-33.75
3992.349	-42.75
3994.86	-38.75
3997.369	-43.75
3999.877	-43.75
4002.382	-41.75
4004.886	-32.75
4007.388	-34.75
4009.888	-24.75
4012.386	-30.75
4014.883	-31.75
4017.377	-33.75
4019.87	-29.75
4022.361	-41.75
4024.85	-34.75
4027.338	-35.75
4029.823	-33.75
4032.307	-34.75
4034.789	-33.75
4037.269	-28.75
4039.747	-50.75
4042.224	-21.75
4044.699	-40.75
4047.172	-36.75
4049.643	-27.75
4052.112	-60.75
4054.58	-34.75
4057.046	-48.75
4059.51	-37.75
4061.972	-32.75
4064.432	-53.75
4066.891	-23.75
4069.348	-33.75
4071.803	-30.75
4074.256	-36.75
4076.708	-26.75
4079.158	-33.75
4081.606	-25.75
4084.052	-34.75
4086.497	-22.75
4088.939	-30.75
4091.38	-33.75
4093.819	-28.75
4096.257	-0.75
4098.693	-8.75
4101.127	-5.75
4103.559	0.25
4105.989	57.25
4108.418	63.25
4110.845	56.25
4113.27	56.25
4115.694	52.25
4118.115	42.25
4120.535	-31.75
4122.954	-28.75
4125.37	-23.75
4127.785	-28.75
4130.198	-25.75
4132.609	-27.75
4135.019	10.25
4137.427	3.25
4139.833	5.25
4142.237	-3.75
