Data from 2018-3-6_conc=3_n=7_RamanShift_05.txt Node
Date: Tue Mar 06 13:35:19 GMT+02:00 2018
User: LAB3
Spectrometer: QEPB0276
Trigger mode: 0
Integration Time (sec): 3.000000E1
Scans to average: 1
Electric dark correction enabled: true
Nonlinearity correction enabled: false
Boxcar width: 0
XAxis mode: Raman Shifts
Number of Pixels in Spectrum: 1044
>>>>>Begin Spectral Data<<<<<
160.701	102.12
166.742	148.12
172.777	212.12
178.805	438.12
184.826	986.12
190.841	1974.12
196.849	3106.12
202.85	4015.12
208.845	4321.12
214.833	4344.12
220.815	4292.12
226.789	4284.12
232.758	4351.12
238.719	4313.12
244.674	4300.12
250.623	4284.12
256.565	4259.12
262.5	4184.12
268.429	4208.12
274.351	4169.12
280.267	4173.12
286.176	4160.12
292.079	4172.12
297.975	4162.12
303.865	4178.12
309.748	4184.12
315.625	4195.12
321.495	4213.12
327.359	4180.12
333.217	4194.12
339.068	4236.12
344.912	4261.12
350.751	4261.12
356.583	4252.12
362.408	4307.12
368.227	4349.12
374.04	4347.12
379.847	4347.12
385.647	4398.12
391.44	4401.12
397.228	4427.12
403.009	4458.12
408.784	4488.12
414.553	4511.12
420.315	4496.12
426.071	4506.12
431.821	4517.12
437.565	4516.12
443.302	4498.12
449.033	4467.12
454.758	4455.12
460.477	4413.12
466.189	4339.12
471.896	4365.12
477.596	4319.12
483.29	4261.12
488.978	4272.12
494.66	4263.12
500.335	4142.12
506.005	3950.12
511.668	3767.12
517.325	3573.12
522.977	3446.12
528.622	3335.12
534.261	3228.12
539.894	3204.12
545.521	3132.12
551.141	3093.12
556.756	3067.12
562.365	3014.12
567.968	3018.12
573.565	2969.12
579.155	2993.12
584.74	2947.12
590.319	2963.12
595.892	2965.12
601.459	2976.12
607.02	2938.12
612.575	2922.12
618.124	2902.12
623.667	2831.12
629.204	2825.12
634.735	2781.12
640.261	2741.12
645.781	2694.12
651.294	2726.12
656.802	2706.12
662.304	2688.12
667.8	2691.12
673.29	2676.12
678.775	2656.12
684.254	2652.12
689.726	2627.12
695.193	2638.12
700.655	2609.12
706.11	2586.12
711.56	2584.12
717.004	2578.12
722.442	2544.12
727.874	2534.12
733.301	2555.12
738.722	2520.12
744.137	2544.12
749.547	2533.12
754.951	2515.12
760.349	2518.12
765.741	2564.12
771.128	2560.12
776.509	2576.12
781.885	2618.12
787.254	2655.12
792.618	2666.12
797.977	2652.12
803.33	2639.12
808.677	2608.12
814.019	2613.12
819.355	2566.12
824.686	2534.12
830.011	2512.12
835.33	2545.12
840.644	2513.12
845.952	2477.12
851.255	2478.12
856.552	2434.12
861.844	2415.12
867.13	2375.12
872.41	2364.12
877.686	2361.12
882.955	2342.12
888.219	2304.12
893.478	2269.12
898.731	2251.12
903.979	2234.12
909.221	2202.12
914.458	2195.12
919.69	2204.12
924.916	2179.12
930.136	2208.12
935.351	2190.12
940.561	2213.12
945.766	2181.12
950.965	2203.12
956.158	2152.12
961.347	2155.12
966.529	2113.12
971.707	2089.12
976.879	2089.12
982.046	2041.12
987.208	2026.12
992.364	2044.12
997.515	2046.12
1002.66	2060.12
1007.801	2057.12
1012.936	2086.12
1018.066	2081.12
1023.19	2096.12
1028.309	2104.12
1033.423	2120.12
1038.532	2119.12
1043.636	2104.12
1048.734	2086.12
1053.827	2055.12
1058.915	2037.12
1063.998	2018.12
1069.075	2009.12
1074.147	2028.12
1079.214	2027.12
1084.276	2027.12
1089.333	2046.12
1094.385	2043.12
1099.431	2011.12
1104.472	2020.12
1109.509	2007.12
1114.54	1968.12
1119.565	1932.12
1124.586	1918.12
1129.602	1893.12
1134.613	1860.12
1139.618	1860.12
1144.619	1871.12
1149.614	1885.12
1154.604	1877.12
1159.589	1868.12
1164.57	1887.12
1169.545	1889.12
1174.515	1905.12
1179.48	1881.12
1184.44	1867.12
1189.395	1868.12
1194.345	1830.12
1199.29	1845.12
1204.23	1828.12
1209.165	1820.12
1214.095	1831.12
1219.021	1837.12
1223.941	1843.12
1228.856	1863.12
1233.766	1876.12
1238.672	1875.12
1243.572	1879.12
1248.467	1844.12
1253.358	1826.12
1258.244	1762.12
1263.124	1773.12
1268	1748.12
1272.871	1696.12
1277.737	1694.12
1282.599	1679.12
1287.455	1666.12
1292.306	1700.12
1297.153	1665.12
1301.995	1685.12
1306.832	1696.12
1311.664	1709.12
1316.491	1689.12
1321.314	1707.12
1326.132	1669.12
1330.945	1674.12
1335.753	1630.12
1340.556	1610.12
1345.354	1569.12
1350.148	1562.12
1354.937	1539.12
1359.722	1529.12
1364.501	1511.12
1369.276	1519.12
1374.046	1509.12
1378.811	1519.12
1383.572	1506.12
1388.327	1507.12
1393.079	1476.12
1397.825	1452.12
1402.567	1471.12
1407.304	1458.12
1412.036	1436.12
1416.764	1438.12
1421.487	1427.12
1426.205	1422.12
1430.919	1433.12
1435.628	1459.12
1440.333	1453.12
1445.032	1466.12
1449.727	1470.12
1454.418	1480.12
1459.104	1471.12
1463.785	1447.12
1468.462	1444.12
1473.134	1420.12
1477.802	1397.12
1482.465	1362.12
1487.123	1353.12
1491.777	1324.12
1496.426	1306.12
1501.071	1372.12
1505.711	1328.12
1510.347	1347.12
1514.978	1342.12
1519.604	1351.12
1524.226	1367.12
1528.844	1333.12
1533.457	1358.12
1538.065	1333.12
1542.669	1325.12
1547.269	1323.12
1551.864	1323.12
1556.454	1312.12
1561.041	1320.12
1565.622	1314.12
1570.199	1313.12
1574.772	1320.12
1579.34	1334.12
1583.904	1342.12
1588.464	1373.12
1593.019	1369.12
1597.569	1354.12
1602.115	1337.12
1606.657	1343.12
1611.195	1360.12
1615.728	1356.12
1620.256	1316.12
1624.78	1309.12
1629.3	1333.12
1633.816	1347.12
1638.327	1336.12
1642.834	1366.12
1647.336	1357.12
1651.834	1360.12
1656.328	1356.12
1660.817	1345.12
1665.302	1346.12
1669.783	1334.12
1674.259	1290.12
1678.732	1277.12
1683.199	1254.12
1687.663	1201.12
1692.122	1180.12
1696.577	1158.12
1701.028	1143.12
1705.474	1113.12
1709.917	1096.12
1714.355	1075.12
1718.788	1069.12
1723.218	1043.12
1727.643	1036.12
1732.064	1044.12
1736.481	1009.12
1740.893	1005.12
1745.301	975.12
1749.705	946.12
1754.105	934.12
1758.501	912.12
1762.893	920.12
1767.28	861.12
1771.663	868.12
1776.042	852.12
1780.417	863.12
1784.787	875.12
1789.154	866.12
1793.516	878.12
1797.874	871.12
1802.228	857.12
1806.578	849.12
1810.924	856.12
1815.266	735.12
1819.603	836.12
1823.937	817.12
1828.266	813.12
1832.591	821.12
1836.913	809.12
1841.23	797.12
1845.543	801.12
1849.852	798.12
1854.156	811.12
1858.457	803.12
1862.754	796.12
1867.047	795.12
1871.335	810.12
1875.62	813.12
1879.9	797.12
1884.177	790.12
1888.449	791.12
1892.718	780.12
1896.982	787.12
1901.243	770.12
1905.499	760.12
1909.752	753.12
1914	740.12
1918.245	767.12
1922.485	771.12
1926.722	751.12
1930.954	753.12
1935.183	766.12
1939.408	763.12
1943.628	765.12
1947.845	748.12
1952.058	761.12
1956.267	730.12
1960.472	742.12
1964.673	718.12
1968.87	712.12
1973.063	707.12
1977.252	707.12
1981.438	681.12
1985.619	683.12
1989.797	662.12
1993.971	662.12
1998.14	683.12
2002.306	670.12
2006.469	662.12
2010.627	654.12
2014.781	653.12
2018.932	651.12
2023.078	673.12
2027.221	650.12
2031.36	632.12
2035.495	634.12
2039.627	623.12
2043.754	632.12
2047.878	620.12
2051.998	609.12
2056.114	608.12
2060.226	606.12
2064.334	619.12
2068.439	617.12
2072.54	619.12
2076.637	607.12
2080.73	623.12
2084.82	613.12
2088.906	602.12
2092.988	606.12
2097.066	614.12
2101.14	622.12
2105.211	590.12
2109.278	586.12
2113.342	577.12
2117.401	565.12
2121.457	560.12
2125.509	556.12
2129.558	566.12
2133.602	555.12
2137.643	550.12
2141.681	557.12
2145.714	557.12
2149.744	549.12
2153.77	547.12
2157.793	535.12
2161.812	499.12
2165.827	515.12
2169.838	533.12
2173.846	498.12
2177.851	493.12
2181.851	497.12
2185.848	490.12
2189.841	487.12
2193.831	472.12
2197.817	479.12
2201.799	465.12
2205.778	450.12
2209.753	461.12
2213.725	457.12
2217.693	471.12
2221.657	445.12
2225.618	460.12
2229.575	446.12
2233.529	450.12
2237.479	451.12
2241.425	434.12
2245.368	435.12
2249.307	434.12
2253.243	416.12
2257.175	422.12
2261.104	405.12
2265.029	412.12
2268.95	401.12
2272.868	391.12
2276.783	381.12
2280.694	391.12
2284.601	386.12
2288.505	376.12
2292.405	388.12
2296.302	350.12
2300.195	363.12
2304.085	331.12
2307.971	361.12
2311.854	338.12
2315.734	345.12
2319.609	348.12
2323.482	315.12
2327.351	329.12
2331.216	323.12
2335.078	331.12
2338.937	320.12
2342.792	316.12
2346.643	321.12
2350.492	328.12
2354.336	311.12
2358.178	321.12
2362.015	328.12
2365.85	323.12
2369.681	322.12
2373.508	324.12
2377.333	324.12
2381.153	323.12
2384.971	315.12
2388.785	327.12
2392.595	302.12
2396.402	310.12
2400.206	282.12
2404.007	301.12
2407.804	297.12
2411.597	314.12
2415.388	299.12
2419.174	286.12
2422.958	299.12
2426.738	294.12
2430.515	296.12
2434.289	286.12
2438.059	283.12
2441.825	286.12
2445.589	290.12
2449.349	272.12
2453.106	284.12
2456.859	274.12
2460.61	287.12
2464.356	258.12
2468.1	262.12
2471.84	261.12
2475.577	258.12
2479.311	262.12
2483.041	258.12
2486.768	261.12
2490.492	265.12
2494.213	258.12
2497.93	251.12
2501.644	244.12
2505.355	254.12
2509.062	259.12
2512.766	246.12
2516.467	240.12
2520.165	249.12
2523.859	235.12
2527.551	262.12
2531.239	235.12
2534.923	242.12
2538.605	235.12
2542.283	240.12
2545.958	239.12
2549.63	251.12
2553.299	241.12
2556.964	230.12
2560.626	221.12
2564.285	224.12
2567.941	219.12
2571.594	224.12
2575.243	223.12
2578.89	220.12
2582.533	219.12
2586.173	221.12
2589.809	211.12
2593.443	203.12
2597.073	213.12
2600.701	211.12
2604.325	214.12
2607.946	201.12
2611.564	217.12
2615.178	212.12
2618.79	211.12
2622.398	197.12
2626.004	203.12
2629.606	198.12
2633.205	190.12
2636.801	200.12
2640.394	198.12
2643.983	185.12
2647.57	185.12
2651.153	183.12
2654.734	195.12
2658.311	159.12
2661.885	182.12
2665.456	177.12
2669.025	180.12
2672.589	170.12
2676.151	186.12
2679.71	184.12
2683.266	169.12
2686.819	168.12
2690.368	173.12
2693.915	170.12
2697.458	175.12
2700.999	175.12
2704.536	172.12
2708.071	157.12
2711.602	162.12
2715.13	158.12
2718.656	140.12
2722.178	161.12
2725.697	137.12
2729.214	153.12
2732.727	152.12
2736.237	137.12
2739.744	145.12
2743.249	144.12
2746.75	152.12
2750.248	146.12
2753.743	145.12
2757.236	140.12
2760.725	149.12
2764.211	117.12
2767.695	151.12
2771.175	142.12
2774.652	153.12
2778.127	141.12
2781.598	141.12
2785.067	145.12
2788.532	135.12
2791.995	140.12
2795.455	137.12
2798.911	152.12
2802.365	144.12
2805.816	144.12
2809.264	151.12
2812.709	142.12
2816.151	146.12
2819.59	128.12
2823.026	140.12
2826.46	142.12
2829.89	151.12
2833.318	128.12
2836.742	142.12
2840.164	145.12
2843.583	135.12
2846.999	145.12
2850.412	149.12
2853.822	143.12
2857.229	156.12
2860.634	148.12
2864.035	126.12
2867.434	149.12
2870.83	157.12
2874.223	152.12
2877.613	154.12
2881	146.12
2884.385	159.12
2887.766	150.12
2891.145	161.12
2894.521	159.12
2897.894	150.12
2901.264	171.12
2904.631	164.12
2907.996	160.12
2911.358	168.12
2914.717	162.12
2918.073	166.12
2921.426	148.12
2924.777	154.12
2928.124	154.12
2931.469	180.12
2934.811	165.12
2938.15	190.12
2941.487	176.12
2944.821	202.12
2948.152	172.12
2951.48	188.12
2954.805	170.12
2958.128	192.12
2961.447	178.12
2964.765	195.12
2968.079	180.12
2971.39	185.12
2974.699	187.12
2978.005	188.12
2981.308	181.12
2984.609	188.12
2987.907	195.12
2991.202	206.12
2994.494	182.12
2997.784	203.12
3001.07	205.12
3004.355	194.12
3007.636	209.12
3010.915	211.12
3014.191	204.12
3017.464	207.12
3020.734	209.12
3024.002	209.12
3027.267	213.12
3030.53	217.12
3033.789	214.12
3037.046	220.12
3040.301	206.12
3043.552	224.12
3046.801	235.12
3050.048	244.12
3053.291	266.12
3056.532	251.12
3059.771	235.12
3063.006	260.12
3066.239	265.12
3069.469	280.12
3072.697	281.12
3075.922	281.12
3079.144	283.12
3082.364	310.12
3085.581	298.12
3088.795	331.12
3092.007	320.12
3095.216	331.12
3098.423	324.12
3101.627	322.12
3104.828	344.12
3108.026	340.12
3111.222	373.12
3114.416	376.12
3117.607	374.12
3120.795	383.12
3123.98	389.12
3127.163	382.12
3130.344	401.12
3133.521	404.12
3136.696	425.12
3139.869	422.12
3143.039	421.12
3146.206	450.12
3149.371	445.12
3152.533	447.12
3155.693	440.12
3158.85	449.12
3162.005	466.12
3165.157	452.12
3168.306	468.12
3171.453	478.12
3174.597	456.12
3177.739	446.12
3180.878	466.12
3184.014	466.12
3187.149	466.12
3190.28	469.12
3193.409	473.12
3196.536	475.12
3199.659	487.12
3202.781	481.12
3205.9	471.12
3209.016	477.12
3212.13	468.12
3215.241	475.12
3218.35	473.12
3221.456	462.12
3224.56	460.12
3227.661	458.12
3230.76	454.12
3233.856	448.12
3236.95	453.12
3240.041	431.12
3243.13	446.12
3246.216	439.12
3249.3	436.12
3252.382	439.12
3255.46	421.12
3258.537	386.12
3261.611	415.12
3264.682	421.12
3267.751	424.12
3270.818	421.12
3273.882	439.12
3276.943	424.12
3280.002	430.12
3283.059	408.12
3286.113	422.12
3289.165	395.12
3292.214	390.12
3295.261	411.12
3298.306	373.12
3301.348	384.12
3304.387	371.12
3307.425	389.12
3310.459	371.12
3313.492	383.12
3316.521	370.12
3319.549	372.12
3322.574	373.12
3325.597	366.12
3328.617	348.12
3331.635	349.12
3334.65	330.12
3337.663	360.12
3340.674	343.12
3343.682	350.12
3346.688	354.12
3349.691	337.12
3352.692	351.12
3355.691	349.12
3358.687	343.12
3361.681	344.12
3364.673	336.12
3367.662	333.12
3370.649	347.12
3373.633	318.12
3376.615	323.12
3379.595	302.12
3382.572	310.12
3385.547	310.12
3388.52	303.12
3391.49	302.12
3394.458	292.12
3397.424	301.12
3400.387	287.12
3403.348	288.12
3406.307	290.12
3409.263	282.12
3412.217	289.12
3415.168	277.12
3418.118	285.12
3421.065	275.12
3424.009	288.12
3426.951	263.12
3429.891	251.12
3432.829	257.12
3435.764	262.12
3438.697	235.12
3441.628	255.12
3444.557	231.12
3447.483	231.12
3450.407	231.12
3453.328	218.12
3456.247	211.12
3459.164	197.12
3462.079	217.12
3464.991	200.12
3467.902	200.12
3470.809	187.12
3473.715	192.12
3476.618	179.12
3479.519	178.12
3482.418	150.12
3485.315	152.12
3488.209	155.12
3491.101	147.12
3493.99	134.12
3496.878	139.12
3499.763	145.12
3502.646	142.12
3505.527	123.12
3508.405	124.12
3511.281	104.12
3514.155	120.12
3517.027	113.12
3519.897	96.12
3522.764	102.12
3525.629	79.12
3528.492	101.12
3531.352	93.12
3534.211	88.12
3537.067	78.12
3539.921	78.12
3542.773	74.12
3545.622	68.12
3548.469	55.12
3551.315	53.12
3554.157	69.12
3556.998	53.12
3559.837	58.12
3562.673	53.12
3565.507	49.12
3568.339	38.12
3571.169	43.12
3573.996	45.12
3576.822	21.12
3579.645	32.12
3582.466	32.12
3585.285	39.12
3588.101	28.12
3590.916	29.12
3593.728	30.12
3596.538	22.12
3599.346	23.12
3602.152	14.12
3604.956	22.12
3607.757	25.12
3610.556	12.12
3613.354	11.12
3616.149	13.12
3618.942	12.12
3621.732	17.12
3624.521	7.12
3627.307	-1.88
3630.092	2.12
3632.874	14.12
3635.654	6.12
3638.432	-3.88
3641.208	-4.88
3643.982	1.12
3646.753	10.12
3649.523	-21.88
3652.29	-10.88
3655.055	2.12
3657.818	-4.88
3660.579	-4.88
3663.338	-17.88
3666.095	-15.88
3668.849	-34.88
3671.602	-4.88
3674.352	-18.88
3677.101	0.12
3679.847	-4.88
3682.591	-19.88
3685.333	-22.88
3688.073	-14.88
3690.811	-18.88
3693.547	-25.88
3696.281	-27.88
3699.013	-17.88
3701.742	-21.88
3704.47	-23.88
3707.195	-17.88
3709.919	-15.88
3712.64	-15.88
3715.359	-28.88
3718.076	-8.88
3720.792	-24.88
3723.505	-20.88
3726.216	-10.88
3728.925	-21.88
3731.632	-31.88
3734.336	-24.88
3737.039	-23.88
3739.74	-17.88
3742.439	-43.88
3745.136	-14.88
3747.83	-16.88
3750.523	-19.88
3753.213	-77.88
3755.902	-24.88
3758.589	-44.88
3761.273	-29.88
3763.956	-17.88
3766.636	-40.88
3769.315	-16.88
3771.991	-26.88
3774.665	-29.88
3777.338	-23.88
3780.008	-38.88
3782.677	-27.88
3785.343	-39.88
3788.007	-47.88
3790.67	-24.88
3793.33	-40.88
3795.989	-36.88
3798.645	-20.88
3801.299	-41.88
3803.952	-36.88
3806.602	-30.88
3809.251	-22.88
3811.897	-27.88
3814.542	-26.88
3817.184	-29.88
3819.825	-29.88
3822.463	-46.88
3825.1	-31.88
3827.735	-30.88
3830.367	-37.88
3832.998	-19.88
3835.627	-33.88
3838.253	-22.88
3840.878	-31.88
3843.501	-16.88
3846.122	-26.88
3848.741	-23.88
3851.358	-21.88
3853.973	-35.88
3856.586	-24.88
3859.197	-40.88
3861.806	-33.88
3864.414	-39.88
3867.019	-29.88
3869.622	-19.88
3872.224	-20.88
3874.823	-12.88
3877.421	12.12
3880.016	28.12
3882.61	66.12
3885.202	76.12
3887.792	62.12
3890.38	26.12
3892.966	-10.88
3895.55	-30.88
3898.132	-20.88
3900.713	-19.88
3903.291	-29.88
3905.868	-36.88
3908.442	-30.88
3911.015	-30.88
3913.586	-33.88
3916.155	-38.88
3918.722	-38.88
3921.287	-37.88
3923.85	-51.88
3926.411	-38.88
3928.971	-35.88
3931.528	-30.88
3934.084	-37.88
3936.638	-48.88
3939.19	-29.88
3941.74	-28.88
3944.288	-37.88
3946.834	-35.88
3949.378	-29.88
3951.921	-36.88
3954.462	-33.88
3957	-32.88
3959.537	-24.88
3962.072	-30.88
3964.606	-44.88
3967.137	-36.88
3969.667	-37.88
3972.194	-29.88
3974.72	-34.88
3977.244	-58.88
3979.766	-41.88
3982.286	-38.88
3984.805	-31.88
3987.321	-26.88
3989.836	-24.88
3992.349	-39.88
3994.86	-30.88
3997.369	-38.88
3999.877	-33.88
4002.382	-36.88
4004.886	-28.88
4007.388	-33.88
4009.888	-21.88
4012.386	-26.88
4014.883	-26.88
4017.377	-32.88
4019.87	-28.88
4022.361	-37.88
4024.85	-31.88
4027.338	-32.88
4029.823	-42.88
4032.307	-32.88
4034.789	-30.88
4037.269	-31.88
4039.747	-44.88
4042.224	-24.88
4044.699	-38.88
4047.172	-32.88
4049.643	-25.88
4052.112	-55.88
4054.58	-28.88
4057.046	-42.88
4059.51	-32.88
4061.972	-31.88
4064.432	-49.88
4066.891	-15.88
4069.348	-30.88
4071.803	-27.88
4074.256	-32.88
4076.708	-28.88
4079.158	-27.88
4081.606	-17.88
4084.052	-30.88
4086.497	-24.88
4088.939	-29.88
4091.38	-35.88
4093.819	-23.88
4096.257	1.12
4098.693	-5.88
4101.127	-7.88
4103.559	0.12
4105.989	100.12
4108.418	107.12
4110.845	95.12
4113.27	104.12
4115.694	107.12
4118.115	106.12
4120.535	-29.88
4122.954	-26.88
4125.37	-17.88
4127.785	-25.88
4130.198	-18.88
4132.609	-28.88
4135.019	8.12
4137.427	1.12
4139.833	6.12
4142.237	-2.88
