Data from 2018-2-7_conc=3_RamanShift_11.txt Node
Date: Tue Feb 13 12:27:44 IST 2018
User: aro
Spectrometer: QEPB0276
Trigger mode: 0
Integration Time (sec): 3.000000E1
Scans to average: 1
Electric dark correction enabled: true
Nonlinearity correction enabled: false
Boxcar width: 0
XAxis mode: Raman Shifts
Number of Pixels in Spectrum: 1044
>>>>>Begin Spectral Data<<<<<
160.701	-154.1
166.742	33.9
172.777	572.9
178.805	2223.9
184.826	6094.9
190.841	12535.9
196.849	19884.9
202.85	24964.9
208.845	26564.9
214.833	26218.9
220.815	25739.9
226.789	25532.9
232.758	25404.9
238.719	25194.9
244.674	24886.9
250.623	24356.9
256.565	23861.9
262.5	23358.9
268.429	22902.9
274.351	22561.9
280.267	22248.9
286.176	21973.9
292.079	21715.9
297.975	21522.9
303.865	21294.9
309.748	21209.9
315.625	21038.9
321.495	20887.9
327.359	20845.9
333.217	20799.9
339.068	20745.9
344.912	20704.9
350.751	20686.9
356.583	20669.9
362.408	20658.9
368.227	20696.9
374.04	20681.9
379.847	20770.9
385.647	20788.9
391.44	20801.9
397.228	20959.9
403.009	21053.9
408.784	21118.9
414.553	21182.9
420.315	21205.9
426.071	21301.9
431.821	21303.9
437.565	21229.9
443.302	21235.9
449.033	21139.9
454.758	21145.9
460.477	21127.9
466.189	21003.9
471.896	21005.9
477.596	20985.9
483.29	20906.9
488.978	20886.9
494.66	20815.9
500.335	20671.9
506.005	20451.9
511.668	20237.9
517.325	20058.9
522.977	19840.9
528.622	19706.9
534.261	19542.9
539.894	19519.9
545.521	19453.9
551.141	19412.9
556.756	19262.9
562.365	19217.9
567.968	19139.9
573.565	19076.9
579.155	19060.9
584.74	18980.9
590.319	18894.9
595.892	18841.9
601.459	18730.9
607.02	18649.9
612.575	18531.9
618.124	18440.9
623.667	18380.9
629.204	18222.9
634.735	18159.9
640.261	18125.9
645.781	18081.9
651.294	17978.9
656.802	18039.9
662.304	17982.9
667.8	17917.9
673.29	17885.9
678.775	17901.9
684.254	17842.9
689.726	17762.9
695.193	17669.9
700.655	17620.9
706.11	17504.9
711.56	17511.9
717.004	17406.9
722.442	17294.9
727.874	17269.9
733.301	17197.9
738.722	17158.9
744.137	17088.9
749.547	17122.9
754.951	17101.9
760.349	17184.9
765.741	17128.9
771.128	17142.9
776.509	17135.9
781.885	17150.9
787.254	17170.9
792.618	17008.9
797.977	16933.9
803.33	16852.9
808.677	16752.9
814.019	16631.9
819.355	16590.9
824.686	16529.9
830.011	16469.9
835.33	16456.9
840.644	16454.9
845.952	16558.9
851.255	16603.9
856.552	16594.9
861.844	16574.9
867.13	16577.9
872.41	16458.9
877.686	16417.9
882.955	16308.9
888.219	16094.9
893.478	15944.9
898.731	15737.9
903.979	15604.9
909.221	15460.9
914.458	15423.9
919.69	15433.9
924.916	15481.9
930.136	15554.9
935.351	15565.9
940.561	15581.9
945.766	15532.9
950.965	15440.9
956.158	15363.9
961.347	15218.9
966.529	14947.9
971.707	14812.9
976.879	14602.9
982.046	14518.9
987.208	14532.9
992.364	14501.9
997.515	14571.9
1002.66	14714.9
1007.801	14888.9
1012.936	15027.9
1018.066	14976.9
1023.19	14993.9
1028.309	14999.9
1033.423	14999.9
1038.532	14914.9
1043.636	14768.9
1048.734	14619.9
1053.827	14438.9
1058.915	14260.9
1063.998	14148.9
1069.075	14112.9
1074.147	14165.9
1079.214	14191.9
1084.276	14284.9
1089.333	14377.9
1094.385	14408.9
1099.431	14536.9
1104.472	14508.9
1109.509	14373.9
1114.54	14208.9
1119.565	14066.9
1124.586	13871.9
1129.602	13755.9
1134.613	13698.9
1139.618	13614.9
1144.619	13569.9
1149.614	13554.9
1154.604	13635.9
1159.589	13592.9
1164.57	13616.9
1169.545	13703.9
1174.515	13702.9
1179.48	13597.9
1184.44	13486.9
1189.395	13404.9
1194.345	13326.9
1199.29	13267.9
1204.23	13267.9
1209.165	13337.9
1214.095	13380.9
1219.021	13472.9
1223.941	13551.9
1228.856	13624.9
1233.766	13642.9
1238.672	13684.9
1243.572	13648.9
1248.467	13589.9
1253.358	13400.9
1258.244	13227.9
1263.124	13027.9
1268	12855.9
1272.871	12658.9
1277.737	12594.9
1282.599	12553.9
1287.455	12541.9
1292.306	12599.9
1297.153	12583.9
1301.995	12662.9
1306.832	12721.9
1311.664	12747.9
1316.491	12686.9
1321.314	12576.9
1326.132	12395.9
1330.945	12110.9
1335.753	11820.9
1340.556	11530.9
1345.354	11251.9
1350.148	11032.9
1354.937	10985.9
1359.722	10955.9
1364.501	11007.9
1369.276	11165.9
1374.046	11336.9
1378.811	11480.9
1383.572	11648.9
1388.327	11679.9
1393.079	11647.9
1397.825	11481.9
1402.567	11288.9
1407.304	11137.9
1412.036	11045.9
1416.764	10998.9
1421.487	10943.9
1426.205	10853.9
1430.919	10843.9
1435.628	10836.9
1440.333	10861.9
1445.032	10883.9
1449.727	10945.9
1454.418	10862.9
1459.104	10774.9
1463.785	10570.9
1468.462	10317.9
1473.134	10085.9
1477.802	9866.9
1482.465	9710.9
1487.123	9600.9
1491.777	9553.9
1496.426	9576.9
1501.071	9702.9
1505.711	9870.9
1510.347	10033.9
1514.978	10182.9
1519.604	10395.9
1524.226	10437.9
1528.844	10507.9
1533.457	10478.9
1538.065	10455.9
1542.669	10391.9
1547.269	10287.9
1551.864	10256.9
1556.454	10219.9
1561.041	10227.9
1565.622	10164.9
1570.199	10248.9
1574.772	10270.9
1579.34	10363.9
1583.904	10427.9
1588.464	10425.9
1593.019	10432.9
1597.569	10380.9
1602.115	10313.9
1606.657	10257.9
1611.195	10197.9
1615.728	10125.9
1620.256	10100.9
1624.78	10071.9
1629.3	10096.9
1633.816	10114.9
1638.327	10165.9
1642.834	10212.9
1647.336	10249.9
1651.834	10233.9
1656.328	10231.9
1660.817	10162.9
1665.302	10103.9
1669.783	9853.9
1674.259	9676.9
1678.732	9373.9
1683.199	9079.9
1687.663	8732.9
1692.122	8394.9
1696.577	8274.9
1701.028	8266.9
1705.474	8349.9
1709.917	8453.9
1714.355	8516.9
1718.788	8479.9
1723.218	8361.9
1727.643	8219.9
1732.064	8066.9
1736.481	7861.9
1740.893	7707.9
1745.301	7503.9
1749.705	7286.9
1754.105	7074.9
1758.501	6880.9
1762.893	6679.9
1767.28	6521.9
1771.663	6360.9
1776.042	6208.9
1780.417	6177.9
1784.787	6114.9
1789.154	6184.9
1793.516	6310.9
1797.874	6448.9
1802.228	6575.9
1806.578	6644.9
1810.924	6670.9
1815.266	6596.9
1819.603	6528.9
1823.937	6445.9
1828.266	6310.9
1832.591	6217.9
1836.913	6145.9
1841.23	6088.9
1845.543	6073.9
1849.852	6050.9
1854.156	5998.9
1858.457	5990.9
1862.754	5995.9
1867.047	5983.9
1871.335	5956.9
1875.62	5928.9
1879.9	5899.9
1884.177	5902.9
1888.449	5791.9
1892.718	5773.9
1896.982	5658.9
1901.243	5602.9
1905.499	5583.9
1909.752	5547.9
1914	5518.9
1918.245	5555.9
1922.485	5566.9
1926.722	5650.9
1930.954	5716.9
1935.183	5772.9
1939.408	5864.9
1943.628	5926.9
1947.845	5916.9
1952.058	5892.9
1956.267	5857.9
1960.472	5817.9
1964.673	5695.9
1968.87	5616.9
1973.063	5553.9
1977.252	5496.9
1981.438	5415.9
1985.619	5374.9
1989.797	5315.9
1993.971	5298.9
1998.14	5302.9
2002.306	5278.9
2006.469	5225.9
2010.627	5199.9
2014.781	5175.9
2018.932	5089.9
2023.078	5090.9
2027.221	5011.9
2031.36	4927.9
2035.495	4856.9
2039.627	4771.9
2043.754	4706.9
2047.878	4661.9
2051.998	4647.9
2056.114	4605.9
2060.226	4599.9
2064.334	4624.9
2068.439	4617.9
2072.54	4641.9
2076.637	4694.9
2080.73	4675.9
2084.82	4709.9
2088.906	4747.9
2092.988	4733.9
2097.066	4730.9
2101.14	4741.9
2105.211	4704.9
2109.278	4681.9
2113.342	4649.9
2117.401	4630.9
2121.457	4619.9
2125.509	4569.9
2129.558	4572.9
2133.602	4508.9
2137.643	4505.9
2141.681	4472.9
2145.714	4466.9
2149.744	4434.9
2153.77	4431.9
2157.793	4336.9
2161.812	4338.9
2165.827	4275.9
2169.838	4194.9
2173.846	4102.9
2177.851	4069.9
2181.851	3984.9
2185.848	3970.9
2189.841	3933.9
2193.831	3878.9
2197.817	3845.9
2201.799	3845.9
2205.778	3824.9
2209.753	3810.9
2213.725	3795.9
2217.693	3764.9
2221.657	3772.9
2225.618	3758.9
2229.575	3761.9
2233.529	3736.9
2237.479	3655.9
2241.425	3625.9
2245.368	3584.9
2249.307	3530.9
2253.243	3490.9
2257.175	3451.9
2261.104	3400.9
2265.029	3372.9
2268.95	3324.9
2272.868	3309.9
2276.783	3256.9
2280.694	3238.9
2284.601	3204.9
2288.505	3168.9
2292.405	3146.9
2296.302	3141.9
2300.195	3075.9
2304.085	3057.9
2307.971	3023.9
2311.854	2970.9
2315.734	2920.9
2319.609	2887.9
2323.482	2833.9
2327.351	2834.9
2331.216	2830.9
2335.078	2802.9
2338.937	2775.9
2342.792	2759.9
2346.643	2772.9
2350.492	2772.9
2354.336	2764.9
2358.178	2773.9
2362.015	2815.9
2365.85	2800.9
2369.681	2812.9
2373.508	2807.9
2377.333	2818.9
2381.153	2795.9
2384.971	2784.9
2388.785	2776.9
2392.595	2773.9
2396.402	2727.9
2400.206	2707.9
2404.007	2687.9
2407.804	2699.9
2411.597	2660.9
2415.388	2642.9
2419.174	2649.9
2422.958	2609.9
2426.738	2614.9
2430.515	2571.9
2434.289	2557.9
2438.059	2522.9
2441.825	2511.9
2445.589	2452.9
2449.349	2476.9
2453.106	2434.9
2456.859	2400.9
2460.61	2370.9
2464.356	2315.9
2468.1	2303.9
2471.84	2282.9
2475.577	2272.9
2479.311	2249.9
2483.041	2247.9
2486.768	2237.9
2490.492	2210.9
2494.213	2215.9
2497.93	2220.9
2501.644	2199.9
2505.355	2191.9
2509.062	2147.9
2512.766	2170.9
2516.467	2138.9
2520.165	2139.9
2523.859	2119.9
2527.551	2082.9
2531.239	2103.9
2534.923	2061.9
2538.605	2050.9
2542.283	2066.9
2545.958	2048.9
2549.63	2027.9
2553.299	2054.9
2556.964	2051.9
2560.626	2045.9
2564.285	2025.9
2567.941	2019.9
2571.594	1988.9
2575.243	2008.9
2578.89	1971.9
2582.533	1957.9
2586.173	1950.9
2589.809	1933.9
2593.443	1916.9
2597.073	1894.9
2600.701	1892.9
2604.325	1862.9
2607.946	1856.9
2611.564	1853.9
2615.178	1877.9
2618.79	1850.9
2622.398	1811.9
2626.004	1794.9
2629.606	1779.9
2633.205	1752.9
2636.801	1726.9
2640.394	1703.9
2643.983	1689.9
2647.57	1653.9
2651.153	1631.9
2654.734	1601.9
2658.311	1577.9
2661.885	1568.9
2665.456	1517.9
2669.025	1518.9
2672.589	1509.9
2676.151	1485.9
2679.71	1482.9
2683.266	1432.9
2686.819	1417.9
2690.368	1394.9
2693.915	1387.9
2697.458	1351.9
2700.999	1302.9
2704.536	1285.9
2708.071	1244.9
2711.602	1231.9
2715.13	1207.9
2718.656	1164.9
2722.178	1148.9
2725.697	1112.9
2729.214	1113.9
2732.727	1088.9
2736.237	1075.9
2739.744	1090.9
2743.249	1088.9
2746.75	1081.9
2750.248	1094.9
2753.743	1106.9
2757.236	1126.9
2760.725	1127.9
2764.211	1144.9
2767.695	1173.9
2771.175	1154.9
2774.652	1153.9
2778.127	1134.9
2781.598	1123.9
2785.067	1116.9
2788.532	1130.9
2791.995	1105.9
2795.455	1115.9
2798.911	1115.9
2802.365	1135.9
2805.816	1112.9
2809.264	1112.9
2812.709	1118.9
2816.151	1116.9
2819.59	1131.9
2823.026	1117.9
2826.46	1114.9
2829.89	1117.9
2833.318	1117.9
2836.742	1130.9
2840.164	1146.9
2843.583	1147.9
2846.999	1148.9
2850.412	1180.9
2853.822	1179.9
2857.229	1184.9
2860.634	1195.9
2864.035	1228.9
2867.434	1237.9
2870.83	1259.9
2874.223	1304.9
2877.613	1291.9
2881	1325.9
2884.385	1334.9
2887.766	1314.9
2891.145	1320.9
2894.521	1308.9
2897.894	1311.9
2901.264	1311.9
2904.631	1313.9
2907.996	1293.9
2911.358	1320.9
2914.717	1323.9
2918.073	1330.9
2921.426	1354.9
2924.777	1367.9
2928.124	1377.9
2931.469	1389.9
2934.811	1418.9
2938.15	1452.9
2941.487	1447.9
2944.821	1463.9
2948.152	1456.9
2951.48	1441.9
2954.805	1430.9
2958.128	1406.9
2961.447	1399.9
2964.765	1387.9
2968.079	1386.9
2971.39	1418.9
2974.699	1397.9
2978.005	1430.9
2981.308	1454.9
2984.609	1475.9
2987.907	1516.9
2991.202	1528.9
2994.494	1578.9
2997.784	1604.9
3001.07	1619.9
3004.355	1635.9
3007.636	1678.9
3010.915	1692.9
3014.191	1720.9
3017.464	1733.9
3020.734	1746.9
3024.002	1747.9
3027.267	1748.9
3030.53	1742.9
3033.789	1773.9
3037.046	1792.9
3040.301	1813.9
3043.552	1856.9
3046.801	1895.9
3050.048	1936.9
3053.291	2001.9
3056.532	2037.9
3059.771	2091.9
3063.006	2172.9
3066.239	2221.9
3069.469	2271.9
3072.697	2333.9
3075.922	2385.9
3079.144	2463.9
3082.364	2494.9
3085.581	2562.9
3088.795	2589.9
3092.007	2661.9
3095.216	2726.9
3098.423	2754.9
3101.627	2829.9
3104.828	2888.9
3108.026	2968.9
3111.222	3046.9
3114.416	3077.9
3117.607	3169.9
3120.795	3255.9
3123.98	3313.9
3127.163	3400.9
3130.344	3475.9
3133.521	3550.9
3136.696	3633.9
3139.869	3709.9
3143.039	3748.9
3146.206	3813.9
3149.371	3845.9
3152.533	3886.9
3155.693	3889.9
3158.85	3923.9
3162.005	3955.9
3165.157	3958.9
3168.306	3944.9
3171.453	3937.9
3174.597	3985.9
3177.739	3973.9
3180.878	3978.9
3184.014	3990.9
3187.149	4007.9
3190.28	3996.9
3193.409	3999.9
3196.536	3999.9
3199.659	3991.9
3202.781	4008.9
3205.9	3995.9
3209.016	4002.9
3212.13	3965.9
3215.241	3932.9
3218.35	3909.9
3221.456	3851.9
3224.56	3831.9
3227.661	3782.9
3230.76	3725.9
3233.856	3716.9
3236.95	3677.9
3240.041	3644.9
3243.13	3615.9
3246.216	3584.9
3249.3	3594.9
3252.382	3547.9
3255.46	3504.9
3258.537	3524.9
3261.611	3538.9
3264.682	3513.9
3267.751	3514.9
3270.818	3538.9
3273.882	3503.9
3276.943	3466.9
3280.002	3445.9
3283.059	3384.9
3286.113	3367.9
3289.165	3317.9
3292.214	3292.9
3295.261	3232.9
3298.306	3188.9
3301.348	3127.9
3304.387	3053.9
3307.425	3046.9
3310.459	2992.9
3313.492	2934.9
3316.521	2911.9
3319.549	2866.9
3322.574	2850.9
3325.597	2820.9
3328.617	2788.9
3331.635	2768.9
3334.65	2761.9
3337.663	2740.9
3340.674	2717.9
3343.682	2717.9
3346.688	2700.9
3349.691	2693.9
3352.692	2709.9
3355.691	2678.9
3358.687	2630.9
3361.681	2616.9
3364.673	2558.9
3367.662	2540.9
3370.649	2485.9
3373.633	2465.9
3376.615	2419.9
3379.595	2374.9
3382.572	2370.9
3385.547	2320.9
3388.52	2291.9
3391.49	2251.9
3394.458	2222.9
3397.424	2187.9
3400.387	2157.9
3403.348	2131.9
3406.307	2117.9
3409.263	2090.9
3412.217	2036.9
3415.168	2040.9
3418.118	1987.9
3421.065	1969.9
3424.009	1949.9
3426.951	1916.9
3429.891	1881.9
3432.829	1835.9
3435.764	1809.9
3438.697	1747.9
3441.628	1701.9
3444.557	1659.9
3447.483	1587.9
3450.407	1546.9
3453.328	1511.9
3456.247	1446.9
3459.164	1375.9
3462.079	1360.9
3464.991	1282.9
3467.902	1248.9
3470.809	1186.9
3473.715	1143.9
3476.618	1112.9
3479.519	1067.9
3482.418	1028.9
3485.315	992.9
3488.209	958.9
3491.101	926.9
3493.99	905.9
3496.878	836.9
3499.763	812.9
3502.646	787.9
3505.527	747.9
3508.405	706.9
3511.281	664.9
3514.155	635.9
3517.027	575.9
3519.897	555.9
3522.764	509.9
3525.629	468.9
3528.492	435.9
3531.352	400.9
3534.211	368.9
3537.067	306.9
3539.921	277.9
3542.773	255.9
3545.622	209.9
3548.469	184.9
3551.315	155.9
3554.157	126.9
3556.998	111.9
3559.837	89.9
3562.673	59.9
3565.507	39.9
3568.339	12.9
3571.169	8.9
3573.996	-18.1
3576.822	-36.1
3579.645	-58.1
3582.466	-92.1
3585.285	-79.1
3588.101	-111.1
3590.916	-136.1
3593.728	-153.1
3596.538	-166.1
3599.346	-186.1
3602.152	-205.1
3604.956	-220.1
3607.757	-238.1
3610.556	-244.1
3613.354	-258.1
3616.149	-272.1
3618.942	-281.1
3621.732	-300.1
3624.521	-304.1
3627.307	-317.1
3630.092	-328.1
3632.874	-338.1
3635.654	-347.1
3638.432	-358.1
3641.208	-353.1
3643.982	-379.1
3646.753	-373.1
3649.523	-397.1
3652.29	-397.1
3655.055	-402.1
3657.818	-421.1
3660.579	-427.1
3663.338	-429.1
3666.095	-441.1
3668.849	-463.1
3671.602	-466.1
3674.352	-466.1
3677.101	-471.1
3679.847	-488.1
3682.591	-483.1
3685.333	-492.1
3688.073	-493.1
3690.811	-509.1
3693.547	-500.1
3696.281	-507.1
3699.013	-515.1
3701.742	-522.1
3704.47	-532.1
3707.195	-542.1
3709.919	-535.1
3712.64	-538.1
3715.359	-549.1
3718.076	-545.1
3720.792	-553.1
3723.505	-547.1
3726.216	-559.1
3728.925	-561.1
3731.632	-577.1
3734.336	-574.1
3737.039	-575.1
3739.74	-571.1
3742.439	-575.1
3745.136	-579.1
3747.83	-584.1
3750.523	-578.1
3753.213	-589.1
3755.902	-584.1
3758.589	-586.1
3761.273	-588.1
3763.956	-598.1
3766.636	-592.1
3769.315	-590.1
3771.991	-598.1
3774.665	-598.1
3777.338	-600.1
3780.008	-600.1
3782.677	-597.1
3785.343	-600.1
3788.007	-591.1
3790.67	-605.1
3793.33	-605.1
3795.989	-607.1
3798.645	-611.1
3801.299	-611.1
3803.952	-617.1
3806.602	-617.1
3809.251	-621.1
3811.897	-617.1
3814.542	-606.1
3817.184	-620.1
3819.825	-617.1
3822.463	-616.1
3825.1	-616.1
3827.735	-622.1
3830.367	-620.1
3832.998	-624.1
3835.627	-625.1
3838.253	-624.1
3840.878	-622.1
3843.501	-626.1
3846.122	-624.1
3848.741	-627.1
3851.358	-630.1
3853.973	-628.1
3856.586	-627.1
3859.197	-627.1
3861.806	-630.1
3864.414	-628.1
3867.019	-624.1
3869.622	-632.1
3872.224	-627.1
3874.823	-609.1
3877.421	-595.1
3880.016	-577.1
3882.61	-546.1
3885.202	-547.1
3887.792	-569.1
3890.38	-598.1
3892.966	-615.1
3895.55	-630.1
3898.132	-631.1
3900.713	-638.1
3903.291	-640.1
3905.868	-640.1
3908.442	-637.1
3911.015	-639.1
3913.586	-641.1
3916.155	-643.1
3918.722	-637.1
3921.287	-646.1
3923.85	-643.1
3926.411	-641.1
3928.971	-640.1
3931.528	-647.1
3934.084	-637.1
3936.638	-640.1
3939.19	-648.1
3941.74	-648.1
3944.288	-650.1
3946.834	-645.1
3949.378	-645.1
3951.921	-642.1
3954.462	-649.1
3957	-644.1
3959.537	-640.1
3962.072	-641.1
3964.606	-637.1
3967.137	-646.1
3969.667	-644.1
3972.194	-641.1
3974.72	-640.1
3977.244	-637.1
3979.766	-636.1
3982.286	-635.1
3984.805	-625.1
3987.321	-634.1
3989.836	-632.1
3992.349	-631.1
3994.86	-628.1
3997.369	-638.1
3999.877	-630.1
4002.382	-624.1
4004.886	-633.1
4007.388	-634.1
4009.888	-628.1
4012.386	-634.1
4014.883	-635.1
4017.377	-632.1
4019.87	-632.1
4022.361	-628.1
4024.85	-635.1
4027.338	-630.1
4029.823	-629.1
4032.307	-632.1
4034.789	-634.1
4037.269	-645.1
4039.747	-640.1
4042.224	-625.1
4044.699	-639.1
4047.172	-638.1
4049.643	-633.1
4052.112	-637.1
4054.58	-631.1
4057.046	-637.1
4059.51	-640.1
4061.972	-641.1
4064.432	-634.1
4066.891	-632.1
4069.348	-632.1
4071.803	-635.1
4074.256	-633.1
4076.708	-629.1
4079.158	-627.1
4081.606	-633.1
4084.052	-632.1
4086.497	-635.1
4088.939	-629.1
4091.38	-624.1
4093.819	-632.1
4096.257	-662.1
4098.693	-668.1
4101.127	-669.1
4103.559	-671.1
4105.989	-396.1
4108.418	-388.1
4110.845	-361.1
4113.27	-328.1
4115.694	-291.1
4118.115	-247.1
4120.535	-632.1
4122.954	-635.1
4125.37	-638.1
4127.785	-637.1
4130.198	-639.1
4132.609	-633.1
4135.019	-674.1
4137.427	-666.1
4139.833	-668.1
4142.237	-668.1
