Data from 2018-2-7_conc=3_RamanShift_09.txt Node
Date: Tue Feb 13 12:25:44 IST 2018
User: aro
Spectrometer: QEPB0276
Trigger mode: 0
Integration Time (sec): 3.000000E1
Scans to average: 1
Electric dark correction enabled: true
Nonlinearity correction enabled: false
Boxcar width: 0
XAxis mode: Raman Shifts
Number of Pixels in Spectrum: 1044
>>>>>Begin Spectral Data<<<<<
160.701	-163.1
166.742	22.9
172.777	599.9
178.805	2238.9
184.826	6096.9
190.841	12639.9
196.849	20008.9
202.85	25089.9
208.845	26674.9
214.833	26455.9
220.815	26012.9
226.789	25894.9
232.758	25775.9
238.719	25550.9
244.674	25279.9
250.623	24864.9
256.565	24328.9
262.5	23768.9
268.429	23471.9
274.351	23129.9
280.267	22812.9
286.176	22571.9
292.079	22391.9
297.975	22214.9
303.865	22042.9
309.748	21880.9
315.625	21743.9
321.495	21680.9
327.359	21520.9
333.217	21524.9
339.068	21511.9
344.912	21464.9
350.751	21444.9
356.583	21436.9
362.408	21406.9
368.227	21395.9
374.04	21373.9
379.847	21489.9
385.647	21592.9
391.44	21667.9
397.228	21737.9
403.009	21780.9
408.784	21852.9
414.553	21940.9
420.315	22026.9
426.071	22062.9
431.821	22004.9
437.565	21998.9
443.302	21983.9
449.033	21967.9
454.758	21843.9
460.477	21871.9
466.189	21869.9
471.896	21795.9
477.596	21712.9
483.29	21603.9
488.978	21670.9
494.66	21561.9
500.335	21439.9
506.005	21246.9
511.668	20959.9
517.325	20729.9
522.977	20637.9
528.622	20489.9
534.261	20297.9
539.894	20270.9
545.521	20159.9
551.141	20141.9
556.756	20079.9
562.365	20006.9
567.968	19891.9
573.565	19826.9
579.155	19827.9
584.74	19764.9
590.319	19667.9
595.892	19545.9
601.459	19465.9
607.02	19361.9
612.575	19318.9
618.124	19201.9
623.667	19103.9
629.204	19002.9
634.735	18928.9
640.261	18865.9
645.781	18805.9
651.294	18800.9
656.802	18732.9
662.304	18713.9
667.8	18657.9
673.29	18637.9
678.775	18656.9
684.254	18518.9
689.726	18525.9
695.193	18434.9
700.655	18432.9
706.11	18320.9
711.56	18153.9
717.004	18113.9
722.442	18037.9
727.874	17907.9
733.301	17903.9
738.722	17829.9
744.137	17800.9
749.547	17840.9
754.951	17804.9
760.349	17830.9
765.741	17775.9
771.128	17831.9
776.509	17839.9
781.885	17816.9
787.254	17828.9
792.618	17713.9
797.977	17624.9
803.33	17500.9
808.677	17446.9
814.019	17324.9
819.355	17197.9
824.686	17112.9
830.011	17101.9
835.33	17118.9
840.644	17144.9
845.952	17192.9
851.255	17210.9
856.552	17240.9
861.844	17272.9
867.13	17214.9
872.41	17072.9
877.686	17062.9
882.955	16889.9
888.219	16746.9
893.478	16603.9
898.731	16357.9
903.979	16231.9
909.221	16134.9
914.458	16052.9
919.69	16004.9
924.916	16103.9
930.136	16132.9
935.351	16160.9
940.561	16160.9
945.766	16172.9
950.965	16030.9
956.158	15947.9
961.347	15763.9
966.529	15625.9
971.707	15411.9
976.879	15214.9
982.046	15108.9
987.208	15081.9
992.364	15075.9
997.515	15165.9
1002.66	15306.9
1007.801	15461.9
1012.936	15588.9
1018.066	15612.9
1023.19	15587.9
1028.309	15591.9
1033.423	15548.9
1038.532	15465.9
1043.636	15346.9
1048.734	15088.9
1053.827	14930.9
1058.915	14779.9
1063.998	14692.9
1069.075	14601.9
1074.147	14629.9
1079.214	14746.9
1084.276	14844.9
1089.333	14867.9
1094.385	14978.9
1099.431	15060.9
1104.472	15041.9
1109.509	14920.9
1114.54	14758.9
1119.565	14615.9
1124.586	14390.9
1129.602	14270.9
1134.613	14158.9
1139.618	14082.9
1144.619	14018.9
1149.614	14028.9
1154.604	14064.9
1159.589	14130.9
1164.57	14142.9
1169.545	14204.9
1174.515	14202.9
1179.48	14068.9
1184.44	13940.9
1189.395	13908.9
1194.345	13797.9
1199.29	13740.9
1204.23	13781.9
1209.165	13777.9
1214.095	13816.9
1219.021	13886.9
1223.941	13989.9
1228.856	14069.9
1233.766	14148.9
1238.672	14160.9
1243.572	14068.9
1248.467	13976.9
1253.358	13856.9
1258.244	13657.9
1263.124	13438.9
1268	13268.9
1272.871	13158.9
1277.737	13008.9
1282.599	12942.9
1287.455	12983.9
1292.306	12992.9
1297.153	13026.9
1301.995	13070.9
1306.832	13070.9
1311.664	13136.9
1316.491	13046.9
1321.314	12921.9
1326.132	12713.9
1330.945	12468.9
1335.753	12153.9
1340.556	11826.9
1345.354	11574.9
1350.148	11509.9
1354.937	11400.9
1359.722	11435.9
1364.501	11483.9
1369.276	11645.9
1374.046	11776.9
1378.811	11931.9
1383.572	12072.9
1388.327	12098.9
1393.079	11980.9
1397.825	11879.9
1402.567	11686.9
1407.304	11546.9
1412.036	11367.9
1416.764	11326.9
1421.487	11257.9
1426.205	11188.9
1430.919	11156.9
1435.628	11168.9
1440.333	11157.9
1445.032	11223.9
1449.727	11258.9
1454.418	11185.9
1459.104	11052.9
1463.785	10855.9
1468.462	10622.9
1473.134	10416.9
1477.802	10178.9
1482.465	10079.9
1487.123	9964.9
1491.777	9891.9
1496.426	9987.9
1501.071	10131.9
1505.711	10245.9
1510.347	10474.9
1514.978	10602.9
1519.604	10751.9
1524.226	10848.9
1528.844	10866.9
1533.457	10820.9
1538.065	10764.9
1542.669	10726.9
1547.269	10618.9
1551.864	10530.9
1556.454	10567.9
1561.041	10504.9
1565.622	10503.9
1570.199	10503.9
1574.772	10531.9
1579.34	10658.9
1583.904	10690.9
1588.464	10706.9
1593.019	10708.9
1597.569	10624.9
1602.115	10560.9
1606.657	10473.9
1611.195	10449.9
1615.728	10342.9
1620.256	10282.9
1624.78	10265.9
1629.3	10301.9
1633.816	10317.9
1638.327	10367.9
1642.834	10405.9
1647.336	10428.9
1651.834	10484.9
1656.328	10448.9
1660.817	10392.9
1665.302	10277.9
1669.783	10115.9
1674.259	9899.9
1678.732	9576.9
1683.199	9246.9
1687.663	8920.9
1692.122	8711.9
1696.577	8590.9
1701.028	8614.9
1705.474	8695.9
1709.917	8787.9
1714.355	8800.9
1718.788	8751.9
1723.218	8664.9
1727.643	8469.9
1732.064	8307.9
1736.481	8123.9
1740.893	7932.9
1745.301	7740.9
1749.705	7520.9
1754.105	7301.9
1758.501	7097.9
1762.893	6887.9
1767.28	6722.9
1771.663	6563.9
1776.042	6464.9
1780.417	6413.9
1784.787	6404.9
1789.154	6476.9
1793.516	6603.9
1797.874	6757.9
1802.228	6882.9
1806.578	6953.9
1810.924	6952.9
1815.266	6879.9
1819.603	6767.9
1823.937	6683.9
1828.266	6557.9
1832.591	6472.9
1836.913	6390.9
1841.23	6355.9
1845.543	6262.9
1849.852	6237.9
1854.156	6216.9
1858.457	6212.9
1862.754	6235.9
1867.047	6181.9
1871.335	6190.9
1875.62	6137.9
1879.9	6123.9
1884.177	6084.9
1888.449	6011.9
1892.718	5974.9
1896.982	5876.9
1901.243	5835.9
1905.499	5792.9
1909.752	5781.9
1914	5777.9
1918.245	5795.9
1922.485	5866.9
1926.722	5943.9
1930.954	5982.9
1935.183	6082.9
1939.408	6126.9
1943.628	6161.9
1947.845	6159.9
1952.058	6196.9
1956.267	6109.9
1960.472	6048.9
1964.673	5938.9
1968.87	5819.9
1973.063	5736.9
1977.252	5681.9
1981.438	5597.9
1985.619	5520.9
1989.797	5545.9
1993.971	5474.9
1998.14	5447.9
2002.306	5398.9
2006.469	5376.9
2010.627	5375.9
2014.781	5302.9
2018.932	5284.9
2023.078	5236.9
2027.221	5117.9
2031.36	5043.9
2035.495	4954.9
2039.627	4914.9
2043.754	4875.9
2047.878	4801.9
2051.998	4807.9
2056.114	4745.9
2060.226	4734.9
2064.334	4790.9
2068.439	4766.9
2072.54	4787.9
2076.637	4832.9
2080.73	4882.9
2084.82	4910.9
2088.906	4933.9
2092.988	4932.9
2097.066	4910.9
2101.14	4908.9
2105.211	4847.9
2109.278	4811.9
2113.342	4775.9
2117.401	4789.9
2121.457	4749.9
2125.509	4749.9
2129.558	4693.9
2133.602	4651.9
2137.643	4639.9
2141.681	4626.9
2145.714	4580.9
2149.744	4557.9
2153.77	4488.9
2157.793	4482.9
2161.812	4416.9
2165.827	4367.9
2169.838	4307.9
2173.846	4230.9
2177.851	4153.9
2181.851	4112.9
2185.848	4060.9
2189.841	4001.9
2193.831	3952.9
2197.817	3924.9
2201.799	3928.9
2205.778	3893.9
2209.753	3875.9
2213.725	3868.9
2217.693	3843.9
2221.657	3827.9
2225.618	3848.9
2229.575	3802.9
2233.529	3791.9
2237.479	3758.9
2241.425	3707.9
2245.368	3655.9
2249.307	3591.9
2253.243	3555.9
2257.175	3510.9
2261.104	3464.9
2265.029	3418.9
2268.95	3402.9
2272.868	3361.9
2276.783	3312.9
2280.694	3283.9
2284.601	3270.9
2288.505	3231.9
2292.405	3202.9
2296.302	3163.9
2300.195	3132.9
2304.085	3094.9
2307.971	3069.9
2311.854	3014.9
2315.734	2971.9
2319.609	2929.9
2323.482	2884.9
2327.351	2873.9
2331.216	2862.9
2335.078	2846.9
2338.937	2822.9
2342.792	2784.9
2346.643	2799.9
2350.492	2807.9
2354.336	2801.9
2358.178	2784.9
2362.015	2817.9
2365.85	2805.9
2369.681	2827.9
2373.508	2812.9
2377.333	2822.9
2381.153	2807.9
2384.971	2800.9
2388.785	2770.9
2392.595	2753.9
2396.402	2725.9
2400.206	2701.9
2404.007	2699.9
2407.804	2677.9
2411.597	2647.9
2415.388	2642.9
2419.174	2626.9
2422.958	2592.9
2426.738	2594.9
2430.515	2567.9
2434.289	2560.9
2438.059	2522.9
2441.825	2503.9
2445.589	2481.9
2449.349	2446.9
2453.106	2411.9
2456.859	2414.9
2460.61	2357.9
2464.356	2308.9
2468.1	2316.9
2471.84	2266.9
2475.577	2260.9
2479.311	2263.9
2483.041	2231.9
2486.768	2213.9
2490.492	2227.9
2494.213	2207.9
2497.93	2205.9
2501.644	2187.9
2505.355	2180.9
2509.062	2165.9
2512.766	2152.9
2516.467	2136.9
2520.165	2140.9
2523.859	2092.9
2527.551	2097.9
2531.239	2090.9
2534.923	2057.9
2538.605	2055.9
2542.283	2078.9
2545.958	2040.9
2549.63	2064.9
2553.299	2043.9
2556.964	2053.9
2560.626	2022.9
2564.285	2045.9
2567.941	2011.9
2571.594	2005.9
2575.243	2004.9
2578.89	1989.9
2582.533	1954.9
2586.173	1937.9
2589.809	1948.9
2593.443	1906.9
2597.073	1895.9
2600.701	1890.9
2604.325	1869.9
2607.946	1871.9
2611.564	1840.9
2615.178	1848.9
2618.79	1816.9
2622.398	1796.9
2626.004	1787.9
2629.606	1749.9
2633.205	1735.9
2636.801	1702.9
2640.394	1697.9
2643.983	1657.9
2647.57	1631.9
2651.153	1626.9
2654.734	1571.9
2658.311	1557.9
2661.885	1537.9
2665.456	1526.9
2669.025	1512.9
2672.589	1473.9
2676.151	1462.9
2679.71	1451.9
2683.266	1436.9
2686.819	1388.9
2690.368	1364.9
2693.915	1344.9
2697.458	1317.9
2700.999	1282.9
2704.536	1258.9
2708.071	1217.9
2711.602	1186.9
2715.13	1182.9
2718.656	1143.9
2722.178	1121.9
2725.697	1099.9
2729.214	1077.9
2732.727	1088.9
2736.237	1089.9
2739.744	1084.9
2743.249	1091.9
2746.75	1102.9
2750.248	1104.9
2753.743	1108.9
2757.236	1133.9
2760.725	1134.9
2764.211	1149.9
2767.695	1136.9
2771.175	1144.9
2774.652	1126.9
2778.127	1133.9
2781.598	1113.9
2785.067	1108.9
2788.532	1101.9
2791.995	1105.9
2795.455	1101.9
2798.911	1101.9
2802.365	1101.9
2805.816	1093.9
2809.264	1105.9
2812.709	1101.9
2816.151	1085.9
2819.59	1100.9
2823.026	1096.9
2826.46	1100.9
2829.89	1117.9
2833.318	1096.9
2836.742	1103.9
2840.164	1128.9
2843.583	1117.9
2846.999	1129.9
2850.412	1141.9
2853.822	1137.9
2857.229	1177.9
2860.634	1177.9
2864.035	1180.9
2867.434	1220.9
2870.83	1261.9
2874.223	1258.9
2877.613	1280.9
2881	1288.9
2884.385	1275.9
2887.766	1262.9
2891.145	1289.9
2894.521	1268.9
2897.894	1263.9
2901.264	1257.9
2904.631	1263.9
2907.996	1269.9
2911.358	1279.9
2914.717	1279.9
2918.073	1277.9
2921.426	1304.9
2924.777	1306.9
2928.124	1337.9
2931.469	1355.9
2934.811	1359.9
2938.15	1382.9
2941.487	1390.9
2944.821	1415.9
2948.152	1389.9
2951.48	1392.9
2954.805	1349.9
2958.128	1348.9
2961.447	1330.9
2964.765	1334.9
2968.079	1342.9
2971.39	1353.9
2974.699	1389.9
2978.005	1394.9
2981.308	1421.9
2984.609	1443.9
2987.907	1457.9
2991.202	1470.9
2994.494	1507.9
2997.784	1555.9
3001.07	1579.9
3004.355	1586.9
3007.636	1618.9
3010.915	1609.9
3014.191	1640.9
3017.464	1649.9
3020.734	1654.9
3024.002	1701.9
3027.267	1680.9
3030.53	1696.9
3033.789	1715.9
3037.046	1729.9
3040.301	1733.9
3043.552	1811.9
3046.801	1838.9
3050.048	1859.9
3053.291	1928.9
3056.532	1960.9
3059.771	2010.9
3063.006	2072.9
3066.239	2123.9
3069.469	2211.9
3072.697	2255.9
3075.922	2290.9
3079.144	2357.9
3082.364	2419.9
3085.581	2458.9
3088.795	2511.9
3092.007	2579.9
3095.216	2633.9
3098.423	2687.9
3101.627	2729.9
3104.828	2798.9
3108.026	2847.9
3111.222	2939.9
3114.416	2972.9
3117.607	3052.9
3120.795	3115.9
3123.98	3177.9
3127.163	3263.9
3130.344	3337.9
3133.521	3409.9
3136.696	3492.9
3139.869	3540.9
3143.039	3609.9
3146.206	3648.9
3149.371	3688.9
3152.533	3726.9
3155.693	3752.9
3158.85	3806.9
3162.005	3788.9
3165.157	3801.9
3168.306	3807.9
3171.453	3835.9
3174.597	3832.9
3177.739	3817.9
3180.878	3829.9
3184.014	3863.9
3187.149	3868.9
3190.28	3841.9
3193.409	3843.9
3196.536	3855.9
3199.659	3846.9
3202.781	3865.9
3205.9	3840.9
3209.016	3852.9
3212.13	3856.9
3215.241	3811.9
3218.35	3768.9
3221.456	3720.9
3224.56	3707.9
3227.661	3631.9
3230.76	3596.9
3233.856	3566.9
3236.95	3534.9
3240.041	3528.9
3243.13	3503.9
3246.216	3445.9
3249.3	3428.9
3252.382	3432.9
3255.46	3417.9
3258.537	3410.9
3261.611	3414.9
3264.682	3380.9
3267.751	3390.9
3270.818	3361.9
3273.882	3373.9
3276.943	3329.9
3280.002	3312.9
3283.059	3257.9
3286.113	3216.9
3289.165	3201.9
3292.214	3173.9
3295.261	3088.9
3298.306	3048.9
3301.348	3006.9
3304.387	2961.9
3307.425	2920.9
3310.459	2857.9
3313.492	2809.9
3316.521	2790.9
3319.549	2745.9
3322.574	2684.9
3325.597	2688.9
3328.617	2678.9
3331.635	2665.9
3334.65	2642.9
3337.663	2639.9
3340.674	2602.9
3343.682	2593.9
3346.688	2583.9
3349.691	2602.9
3352.692	2567.9
3355.691	2534.9
3358.687	2511.9
3361.681	2472.9
3364.673	2481.9
3367.662	2410.9
3370.649	2368.9
3373.633	2342.9
3376.615	2317.9
3379.595	2277.9
3382.572	2246.9
3385.547	2235.9
3388.52	2179.9
3391.49	2127.9
3394.458	2104.9
3397.424	2087.9
3400.387	2050.9
3403.348	2035.9
3406.307	2006.9
3409.263	1962.9
3412.217	1959.9
3415.168	1919.9
3418.118	1917.9
3421.065	1884.9
3424.009	1852.9
3426.951	1825.9
3429.891	1784.9
3432.829	1735.9
3435.764	1702.9
3438.697	1665.9
3441.628	1612.9
3444.557	1566.9
3447.483	1521.9
3450.407	1456.9
3453.328	1408.9
3456.247	1363.9
3459.164	1309.9
3462.079	1262.9
3464.991	1217.9
3467.902	1158.9
3470.809	1128.9
3473.715	1078.9
3476.618	1052.9
3479.519	1013.9
3482.418	982.9
3485.315	925.9
3488.209	869.9
3491.101	874.9
3493.99	842.9
3496.878	802.9
3499.763	769.9
3502.646	746.9
3505.527	700.9
3508.405	667.9
3511.281	624.9
3514.155	590.9
3517.027	552.9
3519.897	512.9
3522.764	469.9
3525.629	416.9
3528.492	398.9
3531.352	350.9
3534.211	321.9
3537.067	272.9
3539.921	248.9
3542.773	221.9
3545.622	188.9
3548.469	161.9
3551.315	128.9
3554.157	106.9
3556.998	88.9
3559.837	64.9
3562.673	29.9
3565.507	12.9
3568.339	-6.1
3571.169	-33.1
3573.996	-47.1
3576.822	-71.1
3579.645	-86.1
3582.466	-111.1
3585.285	-119.1
3588.101	-135.1
3590.916	-161.1
3593.728	-179.1
3596.538	-191.1
3599.346	-209.1
3602.152	-225.1
3604.956	-239.1
3607.757	-252.1
3610.556	-269.1
3613.354	-281.1
3616.149	-285.1
3618.942	-296.1
3621.732	-319.1
3624.521	-324.1
3627.307	-336.1
3630.092	-351.1
3632.874	-361.1
3635.654	-368.1
3638.432	-366.1
3641.208	-378.1
3643.982	-394.1
3646.753	-403.1
3649.523	-407.1
3652.29	-402.1
3655.055	-419.1
3657.818	-435.1
3660.579	-439.1
3663.338	-442.1
3666.095	-456.1
3668.849	-470.1
3671.602	-486.1
3674.352	-483.1
3677.101	-490.1
3679.847	-507.1
3682.591	-502.1
3685.333	-509.1
3688.073	-514.1
3690.811	-517.1
3693.547	-514.1
3696.281	-528.1
3699.013	-518.1
3701.742	-532.1
3704.47	-539.1
3707.195	-551.1
3709.919	-545.1
3712.64	-551.1
3715.359	-556.1
3718.076	-559.1
3720.792	-563.1
3723.505	-569.1
3726.216	-570.1
3728.925	-567.1
3731.632	-581.1
3734.336	-587.1
3737.039	-584.1
3739.74	-587.1
3742.439	-583.1
3745.136	-586.1
3747.83	-587.1
3750.523	-587.1
3753.213	-597.1
3755.902	-595.1
3758.589	-593.1
3761.273	-601.1
3763.956	-599.1
3766.636	-601.1
3769.315	-610.1
3771.991	-613.1
3774.665	-606.1
3777.338	-606.1
3780.008	-604.1
3782.677	-615.1
3785.343	-609.1
3788.007	-613.1
3790.67	-613.1
3793.33	-616.1
3795.989	-619.1
3798.645	-619.1
3801.299	-620.1
3803.952	-625.1
3806.602	-621.1
3809.251	-630.1
3811.897	-621.1
3814.542	-621.1
3817.184	-626.1
3819.825	-625.1
3822.463	-622.1
3825.1	-630.1
3827.735	-630.1
3830.367	-634.1
3832.998	-633.1
3835.627	-633.1
3838.253	-630.1
3840.878	-629.1
3843.501	-635.1
3846.122	-632.1
3848.741	-636.1
3851.358	-639.1
3853.973	-637.1
3856.586	-636.1
3859.197	-637.1
3861.806	-641.1
3864.414	-633.1
3867.019	-634.1
3869.622	-637.1
3872.224	-631.1
3874.823	-618.1
3877.421	-600.1
3880.016	-585.1
3882.61	-555.1
3885.202	-550.1
3887.792	-577.1
3890.38	-605.1
3892.966	-627.1
3895.55	-634.1
3898.132	-642.1
3900.713	-649.1
3903.291	-647.1
3905.868	-650.1
3908.442	-655.1
3911.015	-649.1
3913.586	-651.1
3916.155	-648.1
3918.722	-646.1
3921.287	-647.1
3923.85	-650.1
3926.411	-649.1
3928.971	-647.1
3931.528	-652.1
3934.084	-649.1
3936.638	-651.1
3939.19	-653.1
3941.74	-659.1
3944.288	-655.1
3946.834	-657.1
3949.378	-658.1
3951.921	-653.1
3954.462	-656.1
3957	-651.1
3959.537	-644.1
3962.072	-649.1
3964.606	-644.1
3967.137	-655.1
3969.667	-651.1
3972.194	-648.1
3974.72	-647.1
3977.244	-637.1
3979.766	-645.1
3982.286	-644.1
3984.805	-632.1
3987.321	-638.1
3989.836	-636.1
3992.349	-639.1
3994.86	-636.1
3997.369	-649.1
3999.877	-639.1
4002.382	-634.1
4004.886	-643.1
4007.388	-641.1
4009.888	-635.1
4012.386	-629.1
4014.883	-637.1
4017.377	-634.1
4019.87	-631.1
4022.361	-637.1
4024.85	-636.1
4027.338	-639.1
4029.823	-637.1
4032.307	-646.1
4034.789	-644.1
4037.269	-651.1
4039.747	-646.1
4042.224	-638.1
4044.699	-641.1
4047.172	-648.1
4049.643	-645.1
4052.112	-642.1
4054.58	-632.1
4057.046	-649.1
4059.51	-643.1
4061.972	-649.1
4064.432	-644.1
4066.891	-638.1
4069.348	-649.1
4071.803	-643.1
4074.256	-638.1
4076.708	-641.1
4079.158	-644.1
4081.606	-638.1
4084.052	-634.1
4086.497	-642.1
4088.939	-636.1
4091.38	-636.1
4093.819	-639.1
4096.257	-675.1
4098.693	-673.1
4101.127	-676.1
4103.559	-679.1
4105.989	-395.1
4108.418	-376.1
4110.845	-366.1
4113.27	-334.1
4115.694	-295.1
4118.115	-252.1
4120.535	-640.1
4122.954	-637.1
4125.37	-639.1
4127.785	-641.1
4130.198	-646.1
4132.609	-637.1
4135.019	-680.1
4137.427	-672.1
4139.833	-672.1
4142.237	-674.1
