Data from 2018-2-7_conc=2_RamanShift_06.txt Node
Date: Tue Feb 13 11:46:14 IST 2018
User: aro
Spectrometer: QEPB0276
Trigger mode: 0
Integration Time (sec): 3.000000E1
Scans to average: 1
Electric dark correction enabled: true
Nonlinearity correction enabled: false
Boxcar width: 0
XAxis mode: Raman Shifts
Number of Pixels in Spectrum: 1044
>>>>>Begin Spectral Data<<<<<
160.701	-157.9
166.742	35.1
172.777	564.1
178.805	2169.1
184.826	5927.1
190.841	12232.1
196.849	19415.1
202.85	24316.1
208.845	25787.1
214.833	25486.1
220.815	25038.1
226.789	24826.1
232.758	24674.1
238.719	24396.1
244.674	24046.1
250.623	23558.1
256.565	23074.1
262.5	22555.1
268.429	22090.1
274.351	21748.1
280.267	21454.1
286.176	21136.1
292.079	20938.1
297.975	20697.1
303.865	20489.1
309.748	20394.1
315.625	20246.1
321.495	20099.1
327.359	20017.1
333.217	19999.1
339.068	19948.1
344.912	19961.1
350.751	19909.1
356.583	19841.1
362.408	19863.1
368.227	19822.1
374.04	19860.1
379.847	19954.1
385.647	20014.1
391.44	20084.1
397.228	20127.1
403.009	20238.1
408.784	20264.1
414.553	20367.1
420.315	20422.1
426.071	20365.1
431.821	20404.1
437.565	20402.1
443.302	20399.1
449.033	20275.1
454.758	20271.1
460.477	20173.1
466.189	20133.1
471.896	20138.1
477.596	20129.1
483.29	20110.1
488.978	20015.1
494.66	19955.1
500.335	19780.1
506.005	19589.1
511.668	19383.1
517.325	19204.1
522.977	18936.1
528.622	18835.1
534.261	18750.1
539.894	18594.1
545.521	18577.1
551.141	18501.1
556.756	18433.1
562.365	18398.1
567.968	18307.1
573.565	18253.1
579.155	18163.1
584.74	18073.1
590.319	18018.1
595.892	17943.1
601.459	17858.1
607.02	17772.1
612.575	17709.1
618.124	17588.1
623.667	17475.1
629.204	17368.1
634.735	17315.1
640.261	17268.1
645.781	17173.1
651.294	17149.1
656.802	17163.1
662.304	17117.1
667.8	16996.1
673.29	16992.1
678.775	17015.1
684.254	16902.1
689.726	16901.1
695.193	16816.1
700.655	16758.1
706.11	16693.1
711.56	16590.1
717.004	16456.1
722.442	16431.1
727.874	16368.1
733.301	16281.1
738.722	16277.1
744.137	16221.1
749.547	16201.1
754.951	16199.1
760.349	16238.1
765.741	16275.1
771.128	16229.1
776.509	16223.1
781.885	16280.1
787.254	16225.1
792.618	16136.1
797.977	16054.1
803.33	15930.1
808.677	15793.1
814.019	15746.1
819.355	15650.1
824.686	15579.1
830.011	15595.1
835.33	15565.1
840.644	15532.1
845.952	15623.1
851.255	15638.1
856.552	15670.1
861.844	15629.1
867.13	15625.1
872.41	15479.1
877.686	15439.1
882.955	15328.1
888.219	15164.1
893.478	15035.1
898.731	14821.1
903.979	14694.1
909.221	14594.1
914.458	14511.1
919.69	14514.1
924.916	14536.1
930.136	14554.1
935.351	14639.1
940.561	14553.1
945.766	14544.1
950.965	14492.1
956.158	14413.1
961.347	14279.1
966.529	14042.1
971.707	13885.1
976.879	13738.1
982.046	13626.1
987.208	13559.1
992.364	13544.1
997.515	13722.1
1002.66	13792.1
1007.801	13941.1
1012.936	14035.1
1018.066	14049.1
1023.19	14030.1
1028.309	14026.1
1033.423	14053.1
1038.532	13921.1
1043.636	13769.1
1048.734	13633.1
1053.827	13414.1
1058.915	13302.1
1063.998	13225.1
1069.075	13189.1
1074.147	13128.1
1079.214	13256.1
1084.276	13354.1
1089.333	13394.1
1094.385	13470.1
1099.431	13463.1
1104.472	13511.1
1109.509	13369.1
1114.54	13282.1
1119.565	13060.1
1124.586	12905.1
1129.602	12784.1
1134.613	12727.1
1139.618	12656.1
1144.619	12616.1
1149.614	12625.1
1154.604	12647.1
1159.589	12711.1
1164.57	12713.1
1169.545	12731.1
1174.515	12686.1
1179.48	12659.1
1184.44	12539.1
1189.395	12414.1
1194.345	12319.1
1199.29	12293.1
1204.23	12251.1
1209.165	12356.1
1214.095	12385.1
1219.021	12487.1
1223.941	12558.1
1228.856	12614.1
1233.766	12669.1
1238.672	12673.1
1243.572	12691.1
1248.467	12579.1
1253.358	12416.1
1258.244	12267.1
1263.124	12060.1
1268	11908.1
1272.871	11703.1
1277.737	11674.1
1282.599	11608.1
1287.455	11624.1
1292.306	11632.1
1297.153	11644.1
1301.995	11699.1
1306.832	11707.1
1311.664	11773.1
1316.491	11714.1
1321.314	11599.1
1326.132	11489.1
1330.945	11213.1
1335.753	10883.1
1340.556	10640.1
1345.354	10435.1
1350.148	10254.1
1354.937	10197.1
1359.722	10192.1
1364.501	10205.1
1369.276	10261.1
1374.046	10326.1
1378.811	10485.1
1383.572	10595.1
1388.327	10625.1
1393.079	10590.1
1397.825	10530.1
1402.567	10373.1
1407.304	10272.1
1412.036	10168.1
1416.764	10098.1
1421.487	10046.1
1426.205	9998.1
1430.919	9953.1
1435.628	9958.1
1440.333	9952.1
1445.032	9988.1
1449.727	10061.1
1454.418	9988.1
1459.104	9911.1
1463.785	9709.1
1468.462	9491.1
1473.134	9281.1
1477.802	9064.1
1482.465	8876.1
1487.123	8783.1
1491.777	8769.1
1496.426	8776.1
1501.071	8864.1
1505.711	8941.1
1510.347	9127.1
1514.978	9249.1
1519.604	9376.1
1524.226	9470.1
1528.844	9512.1
1533.457	9494.1
1538.065	9452.1
1542.669	9421.1
1547.269	9296.1
1551.864	9291.1
1556.454	9247.1
1561.041	9275.1
1565.622	9291.1
1570.199	9354.1
1574.772	9364.1
1579.34	9417.1
1583.904	9512.1
1588.464	9546.1
1593.019	9531.1
1597.569	9513.1
1602.115	9515.1
1606.657	9463.1
1611.195	9343.1
1615.728	9307.1
1620.256	9283.1
1624.78	9283.1
1629.3	9249.1
1633.816	9317.1
1638.327	9328.1
1642.834	9401.1
1647.336	9413.1
1651.834	9437.1
1656.328	9408.1
1660.817	9333.1
1665.302	9221.1
1669.783	9047.1
1674.259	8793.1
1678.732	8551.1
1683.199	8232.1
1687.663	7984.1
1692.122	7702.1
1696.577	7532.1
1701.028	7493.1
1705.474	7555.1
1709.917	7607.1
1714.355	7645.1
1718.788	7547.1
1723.218	7501.1
1727.643	7342.1
1732.064	7191.1
1736.481	7056.1
1740.893	6876.1
1745.301	6679.1
1749.705	6493.1
1754.105	6327.1
1758.501	6117.1
1762.893	5959.1
1767.28	5812.1
1771.663	5694.1
1776.042	5593.1
1780.417	5543.1
1784.787	5497.1
1789.154	5573.1
1793.516	5649.1
1797.874	5705.1
1802.228	5817.1
1806.578	5877.1
1810.924	5882.1
1815.266	5853.1
1819.603	5776.1
1823.937	5726.1
1828.266	5585.1
1832.591	5530.1
1836.913	5474.1
1841.23	5392.1
1845.543	5359.1
1849.852	5360.1
1854.156	5326.1
1858.457	5303.1
1862.754	5294.1
1867.047	5320.1
1871.335	5272.1
1875.62	5289.1
1879.9	5247.1
1884.177	5200.1
1888.449	5155.1
1892.718	5113.1
1896.982	5057.1
1901.243	4990.1
1905.499	4943.1
1909.752	4922.1
1914	4896.1
1918.245	4930.1
1922.485	4958.1
1926.722	4993.1
1930.954	5033.1
1935.183	5104.1
1939.408	5158.1
1943.628	5212.1
1947.845	5203.1
1952.058	5177.1
1956.267	5166.1
1960.472	5069.1
1964.673	5071.1
1968.87	4943.1
1973.063	4884.1
1977.252	4804.1
1981.438	4759.1
1985.619	4759.1
1989.797	4692.1
1993.971	4692.1
1998.14	4664.1
2002.306	4641.1
2006.469	4636.1
2010.627	4611.1
2014.781	4582.1
2018.932	4555.1
2023.078	4511.1
2027.221	4436.1
2031.36	4383.1
2035.495	4304.1
2039.627	4212.1
2043.754	4159.1
2047.878	4147.1
2051.998	4106.1
2056.114	4106.1
2060.226	4056.1
2064.334	4087.1
2068.439	4099.1
2072.54	4113.1
2076.637	4127.1
2080.73	4172.1
2084.82	4189.1
2088.906	4203.1
2092.988	4218.1
2097.066	4206.1
2101.14	4167.1
2105.211	4105.1
2109.278	4118.1
2113.342	4098.1
2117.401	4080.1
2121.457	4069.1
2125.509	4050.1
2129.558	4022.1
2133.602	3989.1
2137.643	3976.1
2141.681	3940.1
2145.714	3934.1
2149.744	3924.1
2153.77	3915.1
2157.793	3840.1
2161.812	3825.1
2165.827	3752.1
2169.838	3693.1
2173.846	3632.1
2177.851	3565.1
2181.851	3513.1
2185.848	3471.1
2189.841	3455.1
2193.831	3400.1
2197.817	3392.1
2201.799	3371.1
2205.778	3347.1
2209.753	3371.1
2213.725	3338.1
2217.693	3332.1
2221.657	3316.1
2225.618	3303.1
2229.575	3302.1
2233.529	3260.1
2237.479	3224.1
2241.425	3196.1
2245.368	3163.1
2249.307	3110.1
2253.243	3072.1
2257.175	3041.1
2261.104	2982.1
2265.029	2931.1
2268.95	2903.1
2272.868	2870.1
2276.783	2869.1
2280.694	2822.1
2284.601	2789.1
2288.505	2783.1
2292.405	2736.1
2296.302	2716.1
2300.195	2696.1
2304.085	2655.1
2307.971	2623.1
2311.854	2587.1
2315.734	2562.1
2319.609	2521.1
2323.482	2507.1
2327.351	2466.1
2331.216	2451.1
2335.078	2439.1
2338.937	2425.1
2342.792	2423.1
2346.643	2419.1
2350.492	2430.1
2354.336	2425.1
2358.178	2416.1
2362.015	2417.1
2365.85	2445.1
2369.681	2439.1
2373.508	2446.1
2377.333	2443.1
2381.153	2427.1
2384.971	2435.1
2388.785	2402.1
2392.595	2403.1
2396.402	2357.1
2400.206	2337.1
2404.007	2340.1
2407.804	2316.1
2411.597	2273.1
2415.388	2294.1
2419.174	2262.1
2422.958	2267.1
2426.738	2236.1
2430.515	2242.1
2434.289	2201.1
2438.059	2197.1
2441.825	2171.1
2445.589	2150.1
2449.349	2121.1
2453.106	2097.1
2456.859	2060.1
2460.61	2040.1
2464.356	2011.1
2468.1	1985.1
2471.84	1977.1
2475.577	1951.1
2479.311	1942.1
2483.041	1942.1
2486.768	1935.1
2490.492	1897.1
2494.213	1904.1
2497.93	1898.1
2501.644	1900.1
2505.355	1875.1
2509.062	1865.1
2512.766	1842.1
2516.467	1844.1
2520.165	1828.1
2523.859	1819.1
2527.551	1790.1
2531.239	1771.1
2534.923	1769.1
2538.605	1739.1
2542.283	1763.1
2545.958	1749.1
2549.63	1739.1
2553.299	1731.1
2556.964	1745.1
2560.626	1722.1
2564.285	1726.1
2567.941	1727.1
2571.594	1695.1
2575.243	1678.1
2578.89	1685.1
2582.533	1660.1
2586.173	1654.1
2589.809	1637.1
2593.443	1608.1
2597.073	1608.1
2600.701	1607.1
2604.325	1564.1
2607.946	1563.1
2611.564	1559.1
2615.178	1559.1
2618.79	1535.1
2622.398	1525.1
2626.004	1506.1
2629.606	1501.1
2633.205	1468.1
2636.801	1450.1
2640.394	1418.1
2643.983	1412.1
2647.57	1409.1
2651.153	1378.1
2654.734	1354.1
2658.311	1325.1
2661.885	1311.1
2665.456	1288.1
2669.025	1259.1
2672.589	1280.1
2676.151	1253.1
2679.71	1229.1
2683.266	1218.1
2686.819	1179.1
2690.368	1171.1
2693.915	1142.1
2697.458	1132.1
2700.999	1092.1
2704.536	1076.1
2708.071	1055.1
2711.602	1023.1
2715.13	999.1
2718.656	960.1
2722.178	938.1
2725.697	931.1
2729.214	931.1
2732.727	909.1
2736.237	911.1
2739.744	911.1
2743.249	906.1
2746.75	910.1
2750.248	919.1
2753.743	916.1
2757.236	941.1
2760.725	966.1
2764.211	951.1
2767.695	950.1
2771.175	967.1
2774.652	958.1
2778.127	945.1
2781.598	935.1
2785.067	950.1
2788.532	943.1
2791.995	949.1
2795.455	929.1
2798.911	936.1
2802.365	944.1
2805.816	927.1
2809.264	947.1
2812.709	939.1
2816.151	921.1
2819.59	927.1
2823.026	939.1
2826.46	936.1
2829.89	936.1
2833.318	956.1
2836.742	950.1
2840.164	970.1
2843.583	963.1
2846.999	976.1
2850.412	973.1
2853.822	994.1
2857.229	1022.1
2860.634	1021.1
2864.035	1043.1
2867.434	1057.1
2870.83	1103.1
2874.223	1101.1
2877.613	1130.1
2881	1133.1
2884.385	1169.1
2887.766	1154.1
2891.145	1166.1
2894.521	1142.1
2897.894	1152.1
2901.264	1146.1
2904.631	1152.1
2907.996	1145.1
2911.358	1155.1
2914.717	1159.1
2918.073	1189.1
2921.426	1203.1
2924.777	1221.1
2928.124	1260.1
2931.469	1253.1
2934.811	1277.1
2938.15	1290.1
2941.487	1300.1
2944.821	1315.1
2948.152	1292.1
2951.48	1303.1
2954.805	1287.1
2958.128	1284.1
2961.447	1278.1
2964.765	1241.1
2968.079	1251.1
2971.39	1279.1
2974.699	1277.1
2978.005	1307.1
2981.308	1340.1
2984.609	1367.1
2987.907	1395.1
2991.202	1401.1
2994.494	1434.1
2997.784	1453.1
3001.07	1500.1
3004.355	1510.1
3007.636	1553.1
3010.915	1551.1
3014.191	1564.1
3017.464	1591.1
3020.734	1605.1
3024.002	1609.1
3027.267	1630.1
3030.53	1625.1
3033.789	1671.1
3037.046	1678.1
3040.301	1714.1
3043.552	1746.1
3046.801	1776.1
3050.048	1807.1
3053.291	1874.1
3056.532	1902.1
3059.771	1973.1
3063.006	2021.1
3066.239	2101.1
3069.469	2142.1
3072.697	2212.1
3075.922	2257.1
3079.144	2340.1
3082.364	2356.1
3085.581	2437.1
3088.795	2484.1
3092.007	2537.1
3095.216	2583.1
3098.423	2638.1
3101.627	2695.1
3104.828	2757.1
3108.026	2825.1
3111.222	2924.1
3114.416	2955.1
3117.607	3028.1
3120.795	3095.1
3123.98	3156.1
3127.163	3234.1
3130.344	3288.1
3133.521	3375.1
3136.696	3470.1
3139.869	3511.1
3143.039	3619.1
3146.206	3642.1
3149.371	3672.1
3152.533	3721.1
3155.693	3745.1
3158.85	3771.1
3162.005	3786.1
3165.157	3839.1
3168.306	3809.1
3171.453	3817.1
3174.597	3851.1
3177.739	3816.1
3180.878	3833.1
3184.014	3842.1
3187.149	3838.1
3190.28	3847.1
3193.409	3835.1
3196.536	3850.1
3199.659	3855.1
3202.781	3844.1
3205.9	3860.1
3209.016	3846.1
3212.13	3858.1
3215.241	3824.1
3218.35	3782.1
3221.456	3703.1
3224.56	3694.1
3227.661	3655.1
3230.76	3596.1
3233.856	3582.1
3236.95	3545.1
3240.041	3477.1
3243.13	3469.1
3246.216	3439.1
3249.3	3440.1
3252.382	3412.1
3255.46	3393.1
3258.537	3412.1
3261.611	3380.1
3264.682	3377.1
3267.751	3390.1
3270.818	3374.1
3273.882	3377.1
3276.943	3323.1
3280.002	3321.1
3283.059	3281.1
3286.113	3253.1
3289.165	3210.1
3292.214	3170.1
3295.261	3120.1
3298.306	3081.1
3301.348	3001.1
3304.387	2960.1
3307.425	2931.1
3310.459	2902.1
3313.492	2835.1
3316.521	2790.1
3319.549	2754.1
3322.574	2756.1
3325.597	2712.1
3328.617	2707.1
3331.635	2667.1
3334.65	2669.1
3337.663	2662.1
3340.674	2625.1
3343.682	2620.1
3346.688	2608.1
3349.691	2614.1
3352.692	2612.1
3355.691	2576.1
3358.687	2540.1
3361.681	2514.1
3364.673	2486.1
3367.662	2435.1
3370.649	2420.1
3373.633	2378.1
3376.615	2367.1
3379.595	2300.1
3382.572	2269.1
3385.547	2260.1
3388.52	2229.1
3391.49	2185.1
3394.458	2158.1
3397.424	2131.1
3400.387	2076.1
3403.348	2044.1
3406.307	2045.1
3409.263	2027.1
3412.217	1988.1
3415.168	1970.1
3418.118	1958.1
3421.065	1901.1
3424.009	1873.1
3426.951	1878.1
3429.891	1827.1
3432.829	1780.1
3435.764	1758.1
3438.697	1686.1
3441.628	1637.1
3444.557	1580.1
3447.483	1549.1
3450.407	1483.1
3453.328	1450.1
3456.247	1398.1
3459.164	1336.1
3462.079	1296.1
3464.991	1238.1
3467.902	1176.1
3470.809	1145.1
3473.715	1091.1
3476.618	1064.1
3479.519	1043.1
3482.418	994.1
3485.315	946.1
3488.209	930.1
3491.101	910.1
3493.99	856.1
3496.878	805.1
3499.763	788.1
3502.646	763.1
3505.527	709.1
3508.405	670.1
3511.281	626.1
3514.155	603.1
3517.027	563.1
3519.897	527.1
3522.764	508.1
3525.629	456.1
3528.492	414.1
3531.352	368.1
3534.211	329.1
3537.067	307.1
3539.921	264.1
3542.773	235.1
3545.622	196.1
3548.469	171.1
3551.315	146.1
3554.157	127.1
3556.998	96.1
3559.837	81.1
3562.673	50.1
3565.507	26.1
3568.339	11.1
3571.169	-13.9
3573.996	-15.9
3576.822	-44.9
3579.645	-68.9
3582.466	-81.9
3585.285	-101.9
3588.101	-119.9
3590.916	-135.9
3593.728	-155.9
3596.538	-171.9
3599.346	-188.9
3602.152	-194.9
3604.956	-221.9
3607.757	-228.9
3610.556	-238.9
3613.354	-270.9
3616.149	-263.9
3618.942	-279.9
3621.732	-298.9
3624.521	-292.9
3627.307	-315.9
3630.092	-328.9
3632.874	-335.9
3635.654	-345.9
3638.432	-346.9
3641.208	-356.9
3643.982	-369.9
3646.753	-375.9
3649.523	-377.9
3652.29	-389.9
3655.055	-392.9
3657.818	-408.9
3660.579	-412.9
3663.338	-418.9
3666.095	-431.9
3668.849	-443.9
3671.602	-450.9
3674.352	-457.9
3677.101	-465.9
3679.847	-477.9
3682.591	-483.9
3685.333	-490.9
3688.073	-490.9
3690.811	-503.9
3693.547	-494.9
3696.281	-507.9
3699.013	-510.9
3701.742	-513.9
3704.47	-518.9
3707.195	-524.9
3709.919	-524.9
3712.64	-532.9
3715.359	-537.9
3718.076	-537.9
3720.792	-541.9
3723.505	-545.9
3726.216	-548.9
3728.925	-550.9
3731.632	-563.9
3734.336	-553.9
3737.039	-566.9
3739.74	-561.9
3742.439	-572.9
3745.136	-564.9
3747.83	-564.9
3750.523	-561.9
3753.213	-575.9
3755.902	-569.9
3758.589	-573.9
3761.273	-571.9
3763.956	-585.9
3766.636	-574.9
3769.315	-582.9
3771.991	-585.9
3774.665	-582.9
3777.338	-590.9
3780.008	-586.9
3782.677	-591.9
3785.343	-590.9
3788.007	-577.9
3790.67	-588.9
3793.33	-592.9
3795.989	-593.9
3798.645	-597.9
3801.299	-599.9
3803.952	-598.9
3806.602	-597.9
3809.251	-606.9
3811.897	-600.9
3814.542	-599.9
3817.184	-608.9
3819.825	-601.9
3822.463	-603.9
3825.1	-600.9
3827.735	-609.9
3830.367	-610.9
3832.998	-610.9
3835.627	-610.9
3838.253	-615.9
3840.878	-608.9
3843.501	-608.9
3846.122	-610.9
3848.741	-608.9
3851.358	-613.9
3853.973	-607.9
3856.586	-611.9
3859.197	-614.9
3861.806	-613.9
3864.414	-612.9
3867.019	-608.9
3869.622	-612.9
3872.224	-612.9
3874.823	-605.9
3877.421	-587.9
3880.016	-576.9
3882.61	-548.9
3885.202	-548.9
3887.792	-570.9
3890.38	-585.9
3892.966	-603.9
3895.55	-606.9
3898.132	-618.9
3900.713	-624.9
3903.291	-622.9
3905.868	-626.9
3908.442	-627.9
3911.015	-629.9
3913.586	-621.9
3916.155	-627.9
3918.722	-624.9
3921.287	-621.9
3923.85	-621.9
3926.411	-624.9
3928.971	-623.9
3931.528	-624.9
3934.084	-617.9
3936.638	-627.9
3939.19	-633.9
3941.74	-632.9
3944.288	-633.9
3946.834	-636.9
3949.378	-633.9
3951.921	-629.9
3954.462	-626.9
3957	-624.9
3959.537	-621.9
3962.072	-622.9
3964.606	-625.9
3967.137	-625.9
3969.667	-625.9
3972.194	-622.9
3974.72	-621.9
3977.244	-621.9
3979.766	-620.9
3982.286	-621.9
3984.805	-608.9
3987.321	-615.9
3989.836	-618.9
3992.349	-615.9
3994.86	-611.9
3997.369	-620.9
3999.877	-609.9
4002.382	-611.9
4004.886	-613.9
4007.388	-615.9
4009.888	-615.9
4012.386	-609.9
4014.883	-612.9
4017.377	-610.9
4019.87	-615.9
4022.361	-617.9
4024.85	-623.9
4027.338	-622.9
4029.823	-616.9
4032.307	-619.9
4034.789	-620.9
4037.269	-625.9
4039.747	-622.9
4042.224	-612.9
4044.699	-612.9
4047.172	-622.9
4049.643	-615.9
4052.112	-613.9
4054.58	-610.9
4057.046	-624.9
4059.51	-618.9
4061.972	-625.9
4064.432	-624.9
4066.891	-617.9
4069.348	-617.9
4071.803	-619.9
4074.256	-622.9
4076.708	-620.9
4079.158	-616.9
4081.606	-616.9
4084.052	-614.9
4086.497	-609.9
4088.939	-613.9
4091.38	-611.9
4093.819	-613.9
4096.257	-650.9
4098.693	-652.9
4101.127	-651.9
4103.559	-650.9
4105.989	-388.9
4108.418	-375.9
4110.845	-344.9
4113.27	-327.9
4115.694	-289.9
4118.115	-236.9
4120.535	-612.9
4122.954	-620.9
4125.37	-615.9
4127.785	-615.9
4130.198	-626.9
4132.609	-615.9
4135.019	-655.9
4137.427	-650.9
4139.833	-653.9
4142.237	-649.9
