Data from 2018-2-7_conc=3_RamanShift_01.txt Node
Date: Tue Feb 13 12:18:44 IST 2018
User: aro
Spectrometer: QEPB0276
Trigger mode: 0
Integration Time (sec): 3.000000E1
Scans to average: 1
Electric dark correction enabled: true
Nonlinearity correction enabled: false
Boxcar width: 0
XAxis mode: Raman Shifts
Number of Pixels in Spectrum: 1044
>>>>>Begin Spectral Data<<<<<
160.701	-171.2
166.742	29.8
172.777	607.8
178.805	2351.8
184.826	6419.8
190.841	13223.8
196.849	20873.8
202.85	26043.8
208.845	27705.8
214.833	27394.8
220.815	26856.8
226.789	26595.8
232.758	26430.8
238.719	26243.8
244.674	25792.8
250.623	25340.8
256.565	24801.8
262.5	24236.8
268.429	23814.8
274.351	23376.8
280.267	23071.8
286.176	22785.8
292.079	22614.8
297.975	22240.8
303.865	22065.8
309.748	21893.8
315.625	21737.8
321.495	21620.8
327.359	21465.8
333.217	21451.8
339.068	21456.8
344.912	21414.8
350.751	21423.8
356.583	21377.8
362.408	21374.8
368.227	21373.8
374.04	21399.8
379.847	21424.8
385.647	21427.8
391.44	21665.8
397.228	21716.8
403.009	21760.8
408.784	21864.8
414.553	21876.8
420.315	21904.8
426.071	21984.8
431.821	22020.8
437.565	21969.8
443.302	21954.8
449.033	21893.8
454.758	21842.8
460.477	21822.8
466.189	21736.8
471.896	21660.8
477.596	21653.8
483.29	21585.8
488.978	21498.8
494.66	21407.8
500.335	21315.8
506.005	21123.8
511.668	20827.8
517.325	20536.8
522.977	20346.8
528.622	20248.8
534.261	20198.8
539.894	20016.8
545.521	19953.8
551.141	19860.8
556.756	19672.8
562.365	19712.8
567.968	19675.8
573.565	19517.8
579.155	19479.8
584.74	19492.8
590.319	19271.8
595.892	19278.8
601.459	19146.8
607.02	19076.8
612.575	18972.8
618.124	18795.8
623.667	18742.8
629.204	18632.8
634.735	18516.8
640.261	18480.8
645.781	18400.8
651.294	18415.8
656.802	18342.8
662.304	18251.8
667.8	18261.8
673.29	18215.8
678.775	18181.8
684.254	18121.8
689.726	18071.8
695.193	18028.8
700.655	17934.8
706.11	17832.8
711.56	17741.8
717.004	17720.8
722.442	17612.8
727.874	17537.8
733.301	17462.8
738.722	17446.8
744.137	17358.8
749.547	17308.8
754.951	17392.8
760.349	17367.8
765.741	17378.8
771.128	17383.8
776.509	17418.8
781.885	17328.8
787.254	17306.8
792.618	17238.8
797.977	17161.8
803.33	17040.8
808.677	16943.8
814.019	16891.8
819.355	16782.8
824.686	16720.8
830.011	16622.8
835.33	16637.8
840.644	16694.8
845.952	16700.8
851.255	16791.8
856.552	16760.8
861.844	16715.8
867.13	16700.8
872.41	16647.8
877.686	16541.8
882.955	16402.8
888.219	16231.8
893.478	16038.8
898.731	15890.8
903.979	15662.8
909.221	15572.8
914.458	15505.8
919.69	15522.8
924.916	15524.8
930.136	15617.8
935.351	15608.8
940.561	15625.8
945.766	15594.8
950.965	15481.8
956.158	15376.8
961.347	15212.8
966.529	15034.8
971.707	14863.8
976.879	14662.8
982.046	14562.8
987.208	14513.8
992.364	14570.8
997.515	14568.8
1002.66	14770.8
1007.801	14896.8
1012.936	14983.8
1018.066	15011.8
1023.19	14993.8
1028.309	14957.8
1033.423	14911.8
1038.532	14921.8
1043.636	14759.8
1048.734	14549.8
1053.827	14380.8
1058.915	14197.8
1063.998	14098.8
1069.075	14044.8
1074.147	14081.8
1079.214	14181.8
1084.276	14282.8
1089.333	14323.8
1094.385	14392.8
1099.431	14453.8
1104.472	14387.8
1109.509	14319.8
1114.54	14191.8
1119.565	14001.8
1124.586	13809.8
1129.602	13692.8
1134.613	13608.8
1139.618	13494.8
1144.619	13517.8
1149.614	13509.8
1154.604	13501.8
1159.589	13505.8
1164.57	13608.8
1169.545	13611.8
1174.515	13601.8
1179.48	13569.8
1184.44	13439.8
1189.395	13354.8
1194.345	13228.8
1199.29	13161.8
1204.23	13146.8
1209.165	13219.8
1214.095	13293.8
1219.021	13342.8
1223.941	13409.8
1228.856	13468.8
1233.766	13479.8
1238.672	13499.8
1243.572	13532.8
1248.467	13459.8
1253.358	13238.8
1258.244	13088.8
1263.124	12919.8
1268	12691.8
1272.871	12573.8
1277.737	12459.8
1282.599	12405.8
1287.455	12429.8
1292.306	12413.8
1297.153	12411.8
1301.995	12476.8
1306.832	12576.8
1311.664	12522.8
1316.491	12500.8
1321.314	12407.8
1326.132	12164.8
1330.945	11955.8
1335.753	11627.8
1340.556	11342.8
1345.354	11102.8
1350.148	10911.8
1354.937	10870.8
1359.722	10947.8
1364.501	10918.8
1369.276	11055.8
1374.046	11218.8
1378.811	11359.8
1383.572	11479.8
1388.327	11469.8
1393.079	11444.8
1397.825	11291.8
1402.567	11143.8
1407.304	11018.8
1412.036	10899.8
1416.764	10804.8
1421.487	10756.8
1426.205	10763.8
1430.919	10679.8
1435.628	10658.8
1440.333	10691.8
1445.032	10737.8
1449.727	10740.8
1454.418	10735.8
1459.104	10571.8
1463.785	10368.8
1468.462	10177.8
1473.134	9947.8
1477.802	9704.8
1482.465	9574.8
1487.123	9482.8
1491.777	9423.8
1496.426	9498.8
1501.071	9617.8
1505.711	9767.8
1510.347	9941.8
1514.978	10117.8
1519.604	10246.8
1524.226	10280.8
1528.844	10339.8
1533.457	10344.8
1538.065	10264.8
1542.669	10220.8
1547.269	10131.8
1551.864	10155.8
1556.454	10067.8
1561.041	10098.8
1565.622	10052.8
1570.199	10044.8
1574.772	10125.8
1579.34	10173.8
1583.904	10219.8
1588.464	10280.8
1593.019	10278.8
1597.569	10269.8
1602.115	10191.8
1606.657	10110.8
1611.195	10111.8
1615.728	10006.8
1620.256	9949.8
1624.78	9976.8
1629.3	10020.8
1633.816	10049.8
1638.327	10077.8
1642.834	10115.8
1647.336	10170.8
1651.834	10184.8
1656.328	10155.8
1660.817	10116.8
1665.302	10011.8
1669.783	9821.8
1674.259	9587.8
1678.732	9294.8
1683.199	9006.8
1687.663	8688.8
1692.122	8427.8
1696.577	8320.8
1701.028	8251.8
1705.474	8331.8
1709.917	8366.8
1714.355	8389.8
1718.788	8355.8
1723.218	8162.8
1727.643	8068.8
1732.064	7908.8
1736.481	7686.8
1740.893	7502.8
1745.301	7323.8
1749.705	7092.8
1754.105	6916.8
1758.501	6727.8
1762.893	6559.8
1767.28	6361.8
1771.663	6224.8
1776.042	6125.8
1780.417	6093.8
1784.787	6125.8
1789.154	6172.8
1793.516	6240.8
1797.874	6340.8
1802.228	6449.8
1806.578	6502.8
1810.924	6530.8
1815.266	6457.8
1819.603	6365.8
1823.937	6266.8
1828.266	6150.8
1832.591	6082.8
1836.913	5981.8
1841.23	5920.8
1845.543	5882.8
1849.852	5851.8
1854.156	5853.8
1858.457	5852.8
1862.754	5838.8
1867.047	5800.8
1871.335	5820.8
1875.62	5803.8
1879.9	5748.8
1884.177	5755.8
1888.449	5682.8
1892.718	5633.8
1896.982	5580.8
1901.243	5518.8
1905.499	5458.8
1909.752	5450.8
1914	5469.8
1918.245	5479.8
1922.485	5511.8
1926.722	5602.8
1930.954	5638.8
1935.183	5681.8
1939.408	5736.8
1943.628	5790.8
1947.845	5768.8
1952.058	5806.8
1956.267	5692.8
1960.472	5652.8
1964.673	5568.8
1968.87	5459.8
1973.063	5425.8
1977.252	5350.8
1981.438	5248.8
1985.619	5199.8
1989.797	5192.8
1993.971	5156.8
1998.14	5119.8
2002.306	5094.8
2006.469	5107.8
2010.627	5044.8
2014.781	5012.8
2018.932	4980.8
2023.078	4953.8
2027.221	4887.8
2031.36	4803.8
2035.495	4706.8
2039.627	4664.8
2043.754	4610.8
2047.878	4557.8
2051.998	4541.8
2056.114	4517.8
2060.226	4507.8
2064.334	4539.8
2068.439	4546.8
2072.54	4576.8
2076.637	4575.8
2080.73	4629.8
2084.82	4649.8
2088.906	4658.8
2092.988	4630.8
2097.066	4638.8
2101.14	4604.8
2105.211	4614.8
2109.278	4539.8
2113.342	4533.8
2117.401	4507.8
2121.457	4473.8
2125.509	4482.8
2129.558	4437.8
2133.602	4416.8
2137.643	4381.8
2141.681	4362.8
2145.714	4337.8
2149.744	4316.8
2153.77	4270.8
2157.793	4234.8
2161.812	4169.8
2165.827	4115.8
2169.838	4068.8
2173.846	3997.8
2177.851	3909.8
2181.851	3862.8
2185.848	3819.8
2189.841	3761.8
2193.831	3727.8
2197.817	3716.8
2201.799	3699.8
2205.778	3679.8
2209.753	3672.8
2213.725	3635.8
2217.693	3623.8
2221.657	3635.8
2225.618	3617.8
2229.575	3623.8
2233.529	3575.8
2237.479	3491.8
2241.425	3482.8
2245.368	3452.8
2249.307	3394.8
2253.243	3336.8
2257.175	3299.8
2261.104	3249.8
2265.029	3242.8
2268.95	3171.8
2272.868	3156.8
2276.783	3111.8
2280.694	3069.8
2284.601	3058.8
2288.505	3030.8
2292.405	3028.8
2296.302	2971.8
2300.195	2955.8
2304.085	2918.8
2307.971	2856.8
2311.854	2833.8
2315.734	2778.8
2319.609	2727.8
2323.482	2681.8
2327.351	2659.8
2331.216	2646.8
2335.078	2636.8
2338.937	2610.8
2342.792	2608.8
2346.643	2580.8
2350.492	2589.8
2354.336	2602.8
2358.178	2588.8
2362.015	2618.8
2365.85	2616.8
2369.681	2617.8
2373.508	2611.8
2377.333	2646.8
2381.153	2612.8
2384.971	2593.8
2388.785	2562.8
2392.595	2562.8
2396.402	2517.8
2400.206	2505.8
2404.007	2490.8
2407.804	2462.8
2411.597	2461.8
2415.388	2436.8
2419.174	2433.8
2422.958	2398.8
2426.738	2381.8
2430.515	2365.8
2434.289	2353.8
2438.059	2300.8
2441.825	2306.8
2445.589	2268.8
2449.349	2250.8
2453.106	2214.8
2456.859	2194.8
2460.61	2169.8
2464.356	2144.8
2468.1	2092.8
2471.84	2106.8
2475.577	2077.8
2479.311	2054.8
2483.041	2067.8
2486.768	2035.8
2490.492	2026.8
2494.213	2017.8
2497.93	2003.8
2501.644	1995.8
2505.355	2014.8
2509.062	1981.8
2512.766	1977.8
2516.467	1967.8
2520.165	1953.8
2523.859	1947.8
2527.551	1920.8
2531.239	1898.8
2534.923	1899.8
2538.605	1878.8
2542.283	1877.8
2545.958	1881.8
2549.63	1841.8
2553.299	1862.8
2556.964	1872.8
2560.626	1873.8
2564.285	1859.8
2567.941	1837.8
2571.594	1829.8
2575.243	1837.8
2578.89	1822.8
2582.533	1754.8
2586.173	1788.8
2589.809	1765.8
2593.443	1720.8
2597.073	1743.8
2600.701	1731.8
2604.325	1716.8
2607.946	1693.8
2611.564	1680.8
2615.178	1690.8
2618.79	1647.8
2622.398	1647.8
2626.004	1634.8
2629.606	1595.8
2633.205	1565.8
2636.801	1561.8
2640.394	1557.8
2643.983	1515.8
2647.57	1496.8
2651.153	1459.8
2654.734	1433.8
2658.311	1432.8
2661.885	1413.8
2665.456	1396.8
2669.025	1379.8
2672.589	1351.8
2676.151	1326.8
2679.71	1341.8
2683.266	1289.8
2686.819	1273.8
2690.368	1252.8
2693.915	1232.8
2697.458	1190.8
2700.999	1168.8
2704.536	1145.8
2708.071	1106.8
2711.602	1098.8
2715.13	1083.8
2718.656	1031.8
2722.178	1012.8
2725.697	1009.8
2729.214	1005.8
2732.727	1006.8
2736.237	978.8
2739.744	995.8
2743.249	997.8
2746.75	1015.8
2750.248	989.8
2753.743	1012.8
2757.236	1042.8
2760.725	1045.8
2764.211	1055.8
2767.695	1037.8
2771.175	1047.8
2774.652	1037.8
2778.127	1036.8
2781.598	1012.8
2785.067	1019.8
2788.532	1033.8
2791.995	1018.8
2795.455	1015.8
2798.911	1023.8
2802.365	1023.8
2805.816	1020.8
2809.264	1022.8
2812.709	1012.8
2816.151	1016.8
2819.59	1012.8
2823.026	1013.8
2826.46	1027.8
2829.89	1025.8
2833.318	1033.8
2836.742	1034.8
2840.164	1042.8
2843.583	1040.8
2846.999	1057.8
2850.412	1060.8
2853.822	1084.8
2857.229	1095.8
2860.634	1115.8
2864.035	1133.8
2867.434	1165.8
2870.83	1171.8
2874.223	1220.8
2877.613	1253.8
2881	1244.8
2884.385	1256.8
2887.766	1224.8
2891.145	1264.8
2894.521	1257.8
2897.894	1236.8
2901.264	1252.8
2904.631	1246.8
2907.996	1246.8
2911.358	1261.8
2914.717	1264.8
2918.073	1265.8
2921.426	1320.8
2924.777	1325.8
2928.124	1325.8
2931.469	1344.8
2934.811	1388.8
2938.15	1404.8
2941.487	1411.8
2944.821	1398.8
2948.152	1406.8
2951.48	1411.8
2954.805	1397.8
2958.128	1382.8
2961.447	1372.8
2964.765	1372.8
2968.079	1373.8
2971.39	1385.8
2974.699	1417.8
2978.005	1418.8
2981.308	1462.8
2984.609	1499.8
2987.907	1525.8
2991.202	1544.8
2994.494	1577.8
2997.784	1598.8
3001.07	1612.8
3004.355	1669.8
3007.636	1698.8
3010.915	1704.8
3014.191	1726.8
3017.464	1743.8
3020.734	1746.8
3024.002	1751.8
3027.267	1787.8
3030.53	1771.8
3033.789	1814.8
3037.046	1825.8
3040.301	1873.8
3043.552	1902.8
3046.801	1931.8
3050.048	1982.8
3053.291	2050.8
3056.532	2093.8
3059.771	2153.8
3063.006	2220.8
3066.239	2283.8
3069.469	2353.8
3072.697	2410.8
3075.922	2494.8
3079.144	2541.8
3082.364	2597.8
3085.581	2651.8
3088.795	2722.8
3092.007	2770.8
3095.216	2825.8
3098.423	2916.8
3101.627	2938.8
3104.828	3024.8
3108.026	3090.8
3111.222	3164.8
3114.416	3240.8
3117.607	3294.8
3120.795	3362.8
3123.98	3454.8
3127.163	3549.8
3130.344	3619.8
3133.521	3729.8
3136.696	3805.8
3139.869	3864.8
3143.039	3964.8
3146.206	4007.8
3149.371	4068.8
3152.533	4103.8
3155.693	4108.8
3158.85	4163.8
3162.005	4143.8
3165.157	4190.8
3168.306	4146.8
3171.453	4187.8
3174.597	4189.8
3177.739	4203.8
3180.878	4224.8
3184.014	4202.8
3187.149	4215.8
3190.28	4235.8
3193.409	4210.8
3196.536	4243.8
3199.659	4227.8
3202.781	4244.8
3205.9	4235.8
3209.016	4229.8
3212.13	4223.8
3215.241	4191.8
3218.35	4131.8
3221.456	4104.8
3224.56	4052.8
3227.661	4019.8
3230.76	3946.8
3233.856	3910.8
3236.95	3919.8
3240.041	3863.8
3243.13	3839.8
3246.216	3815.8
3249.3	3806.8
3252.382	3744.8
3255.46	3744.8
3258.537	3759.8
3261.611	3721.8
3264.682	3758.8
3267.751	3719.8
3270.818	3714.8
3273.882	3713.8
3276.943	3681.8
3280.002	3637.8
3283.059	3635.8
3286.113	3610.8
3289.165	3559.8
3292.214	3476.8
3295.261	3410.8
3298.306	3385.8
3301.348	3341.8
3304.387	3291.8
3307.425	3190.8
3310.459	3178.8
3313.492	3112.8
3316.521	3074.8
3319.549	3065.8
3322.574	3019.8
3325.597	2995.8
3328.617	2971.8
3331.635	2959.8
3334.65	2940.8
3337.663	2882.8
3340.674	2899.8
3343.682	2899.8
3346.688	2859.8
3349.691	2864.8
3352.692	2828.8
3355.691	2826.8
3358.687	2791.8
3361.681	2763.8
3364.673	2753.8
3367.662	2675.8
3370.649	2638.8
3373.633	2605.8
3376.615	2584.8
3379.595	2543.8
3382.572	2493.8
3385.547	2476.8
3388.52	2451.8
3391.49	2397.8
3394.458	2348.8
3397.424	2289.8
3400.387	2272.8
3403.348	2271.8
3406.307	2213.8
3409.263	2199.8
3412.217	2197.8
3415.168	2155.8
3418.118	2138.8
3421.065	2100.8
3424.009	2077.8
3426.951	2040.8
3429.891	1993.8
3432.829	1951.8
3435.764	1905.8
3438.697	1861.8
3441.628	1811.8
3444.557	1762.8
3447.483	1709.8
3450.407	1649.8
3453.328	1594.8
3456.247	1548.8
3459.164	1476.8
3462.079	1432.8
3464.991	1373.8
3467.902	1330.8
3470.809	1273.8
3473.715	1228.8
3476.618	1198.8
3479.519	1134.8
3482.418	1108.8
3485.315	1073.8
3488.209	1031.8
3491.101	1000.8
3493.99	953.8
3496.878	926.8
3499.763	888.8
3502.646	844.8
3505.527	800.8
3508.405	761.8
3511.281	730.8
3514.155	683.8
3517.027	629.8
3519.897	602.8
3522.764	543.8
3525.629	502.8
3528.492	467.8
3531.352	430.8
3534.211	392.8
3537.067	340.8
3539.921	314.8
3542.773	286.8
3545.622	240.8
3548.469	189.8
3551.315	184.8
3554.157	162.8
3556.998	131.8
3559.837	102.8
3562.673	79.8
3565.507	50.8
3568.339	34.8
3571.169	9.8
3573.996	-10.2
3576.822	-30.2
3579.645	-50.2
3582.466	-76.2
3585.285	-86.2
3588.101	-105.2
3590.916	-136.2
3593.728	-159.2
3596.538	-168.2
3599.346	-184.2
3602.152	-202.2
3604.956	-235.2
3607.757	-239.2
3610.556	-253.2
3613.354	-279.2
3616.149	-285.2
3618.942	-301.2
3621.732	-305.2
3624.521	-326.2
3627.307	-331.2
3630.092	-348.2
3632.874	-356.2
3635.654	-362.2
3638.432	-372.2
3641.208	-381.2
3643.982	-387.2
3646.753	-398.2
3649.523	-409.2
3652.29	-420.2
3655.055	-413.2
3657.818	-435.2
3660.579	-451.2
3663.338	-452.2
3666.095	-472.2
3668.849	-479.2
3671.602	-487.2
3674.352	-489.2
3677.101	-506.2
3679.847	-521.2
3682.591	-518.2
3685.333	-519.2
3688.073	-525.2
3690.811	-530.2
3693.547	-535.2
3696.281	-554.2
3699.013	-548.2
3701.742	-550.2
3704.47	-565.2
3707.195	-561.2
3709.919	-565.2
3712.64	-579.2
3715.359	-576.2
3718.076	-573.2
3720.792	-586.2
3723.505	-592.2
3726.216	-595.2
3728.925	-595.2
3731.632	-611.2
3734.336	-605.2
3737.039	-610.2
3739.74	-604.2
3742.439	-608.2
3745.136	-619.2
3747.83	-615.2
3750.523	-615.2
3753.213	-623.2
3755.902	-618.2
3758.589	-621.2
3761.273	-624.2
3763.956	-626.2
3766.636	-625.2
3769.315	-632.2
3771.991	-637.2
3774.665	-633.2
3777.338	-636.2
3780.008	-636.2
3782.677	-636.2
3785.343	-640.2
3788.007	-632.2
3790.67	-639.2
3793.33	-642.2
3795.989	-644.2
3798.645	-647.2
3801.299	-649.2
3803.952	-651.2
3806.602	-647.2
3809.251	-651.2
3811.897	-647.2
3814.542	-644.2
3817.184	-650.2
3819.825	-652.2
3822.463	-657.2
3825.1	-663.2
3827.735	-663.2
3830.367	-663.2
3832.998	-661.2
3835.627	-661.2
3838.253	-664.2
3840.878	-660.2
3843.501	-662.2
3846.122	-660.2
3848.741	-659.2
3851.358	-664.2
3853.973	-658.2
3856.586	-658.2
3859.197	-660.2
3861.806	-661.2
3864.414	-655.2
3867.019	-660.2
3869.622	-664.2
3872.224	-662.2
3874.823	-644.2
3877.421	-629.2
3880.016	-616.2
3882.61	-583.2
3885.202	-587.2
3887.792	-609.2
3890.38	-636.2
3892.966	-650.2
3895.55	-655.2
3898.132	-673.2
3900.713	-671.2
3903.291	-672.2
3905.868	-675.2
3908.442	-672.2
3911.015	-672.2
3913.586	-677.2
3916.155	-675.2
3918.722	-677.2
3921.287	-678.2
3923.85	-677.2
3926.411	-676.2
3928.971	-679.2
3931.528	-679.2
3934.084	-675.2
3936.638	-673.2
3939.19	-681.2
3941.74	-682.2
3944.288	-679.2
3946.834	-676.2
3949.378	-683.2
3951.921	-681.2
3954.462	-681.2
3957	-675.2
3959.537	-669.2
3962.072	-673.2
3964.606	-674.2
3967.137	-681.2
3969.667	-678.2
3972.194	-673.2
3974.72	-673.2
3977.244	-671.2
3979.766	-671.2
3982.286	-674.2
3984.805	-666.2
3987.321	-665.2
3989.836	-661.2
3992.349	-664.2
3994.86	-663.2
3997.369	-669.2
3999.877	-664.2
4002.382	-661.2
4004.886	-669.2
4007.388	-668.2
4009.888	-659.2
4012.386	-663.2
4014.883	-666.2
4017.377	-667.2
4019.87	-664.2
4022.361	-665.2
4024.85	-665.2
4027.338	-666.2
4029.823	-665.2
4032.307	-667.2
4034.789	-666.2
4037.269	-674.2
4039.747	-668.2
4042.224	-666.2
4044.699	-671.2
4047.172	-669.2
4049.643	-670.2
4052.112	-667.2
4054.58	-662.2
4057.046	-676.2
4059.51	-669.2
4061.972	-672.2
4064.432	-674.2
4066.891	-667.2
4069.348	-666.2
4071.803	-669.2
4074.256	-665.2
4076.708	-663.2
4079.158	-669.2
4081.606	-664.2
4084.052	-663.2
4086.497	-667.2
4088.939	-665.2
4091.38	-658.2
4093.819	-665.2
4096.257	-705.2
4098.693	-704.2
4101.127	-705.2
4103.559	-707.2
4105.989	-428.2
4108.418	-403.2
4110.845	-379.2
4113.27	-358.2
4115.694	-297.2
4118.115	-254.2
4120.535	-666.2
4122.954	-671.2
4125.37	-668.2
4127.785	-670.2
4130.198	-672.2
4132.609	-666.2
4135.019	-710.2
4137.427	-704.2
4139.833	-704.2
4142.237	-699.2
