Data from 2018-2-7_conc=6_RamanShift_14.txt Node
Date: Tue Feb 13 14:35:43 IST 2018
User: aro
Spectrometer: QEPB0276
Trigger mode: 0
Integration Time (sec): 3.000000E1
Scans to average: 1
Electric dark correction enabled: true
Nonlinearity correction enabled: false
Boxcar width: 0
XAxis mode: Raman Shifts
Number of Pixels in Spectrum: 1044
>>>>>Begin Spectral Data<<<<<
160.701	-156
166.742	28
172.777	588
178.805	2288
184.826	6281
190.841	13016
196.849	20545
202.85	25765
208.845	27370
214.833	27095
220.815	26567
226.789	26300
232.758	26198
238.719	26069
244.674	25661
250.623	25199
256.565	24616
262.5	24095
268.429	23666
274.351	23277
280.267	22964
286.176	22693
292.079	22449
297.975	22197
303.865	22024
309.748	21887
315.625	21668
321.495	21556
327.359	21477
333.217	21497
339.068	21396
344.912	21380
350.751	21377
356.583	21345
362.408	21410
368.227	21406
374.04	21345
379.847	21423
385.647	21559
391.44	21638
397.228	21649
403.009	21751
408.784	21858
414.553	21907
420.315	21957
426.071	21968
431.821	22017
437.565	21911
443.302	21927
449.033	21914
454.758	21758
460.477	21747
466.189	21617
471.896	21566
477.596	21581
483.29	21570
488.978	21491
494.66	21463
500.335	21262
506.005	21010
511.668	20764
517.325	20559
522.977	20360
528.622	20249
534.261	20083
539.894	19952
545.521	19902
551.141	19818
556.756	19773
562.365	19667
567.968	19588
573.565	19523
579.155	19430
584.74	19348
590.319	19316
595.892	19201
601.459	19078
607.02	19054
612.575	18957
618.124	18794
623.667	18758
629.204	18622
634.735	18504
640.261	18439
645.781	18376
651.294	18340
656.802	18335
662.304	18268
667.8	18215
673.29	18215
678.775	18190
684.254	18089
689.726	18083
695.193	17972
700.655	17908
706.11	17812
711.56	17743
717.004	17608
722.442	17546
727.874	17479
733.301	17391
738.722	17404
744.137	17351
749.547	17343
754.951	17372
760.349	17348
765.741	17390
771.128	17372
776.509	17370
781.885	17346
787.254	17317
792.618	17257
797.977	17110
803.33	17013
808.677	16933
814.019	16831
819.355	16738
824.686	16660
830.011	16532
835.33	16635
840.644	16633
845.952	16643
851.255	16633
856.552	16674
861.844	16652
867.13	16582
872.41	16534
877.686	16476
882.955	16298
888.219	16168
893.478	15980
898.731	15789
903.979	15635
909.221	15522
914.458	15445
919.69	15458
924.916	15494
930.136	15512
935.351	15526
940.561	15572
945.766	15529
950.965	15450
956.158	15371
961.347	15129
966.529	14983
971.707	14741
976.879	14584
982.046	14546
987.208	14468
992.364	14435
997.515	14515
1002.66	14657
1007.801	14843
1012.936	14947
1018.066	14942
1023.19	14938
1028.309	14890
1033.423	14905
1038.532	14768
1043.636	14671
1048.734	14474
1053.827	14294
1058.915	14132
1063.998	14011
1069.075	14025
1074.147	13995
1079.214	14092
1084.276	14165
1089.333	14292
1094.385	14300
1099.431	14367
1104.472	14328
1109.509	14204
1114.54	14078
1119.565	13924
1124.586	13737
1129.602	13604
1134.613	13500
1139.618	13401
1144.619	13379
1149.614	13415
1154.604	13416
1159.589	13495
1164.57	13483
1169.545	13520
1174.515	13479
1179.48	13413
1184.44	13324
1189.395	13176
1194.345	13097
1199.29	13059
1204.23	13047
1209.165	13093
1214.095	13179
1219.021	13222
1223.941	13291
1228.856	13384
1233.766	13371
1238.672	13400
1243.572	13414
1248.467	13329
1253.358	13127
1258.244	12992
1263.124	12815
1268	12592
1272.871	12429
1277.737	12350
1282.599	12274
1287.455	12227
1292.306	12269
1297.153	12339
1301.995	12418
1306.832	12359
1311.664	12426
1316.491	12383
1321.314	12272
1326.132	12136
1330.945	11832
1335.753	11558
1340.556	11248
1345.354	10993
1350.148	10883
1354.937	10779
1359.722	10744
1364.501	10798
1369.276	10857
1374.046	11011
1378.811	11120
1383.572	11262
1388.327	11314
1393.079	11253
1397.825	11110
1402.567	10980
1407.304	10808
1412.036	10725
1416.764	10647
1421.487	10599
1426.205	10545
1430.919	10508
1435.628	10512
1440.333	10548
1445.032	10545
1449.727	10641
1454.418	10564
1459.104	10452
1463.785	10220
1468.462	10025
1473.134	9798
1477.802	9654
1482.465	9421
1487.123	9309
1491.777	9261
1496.426	9290
1501.071	9419
1505.711	9505
1510.347	9668
1514.978	9920
1519.604	9969
1524.226	10068
1528.844	10098
1533.457	10063
1538.065	10034
1542.669	9988
1547.269	9903
1551.864	9903
1556.454	9825
1561.041	9846
1565.622	9868
1570.199	9848
1574.772	9917
1579.34	9992
1583.904	10014
1588.464	10080
1593.019	10082
1597.569	10038
1602.115	10051
1606.657	9961
1611.195	9889
1615.728	9838
1620.256	9789
1624.78	9781
1629.3	9856
1633.816	9850
1638.327	9921
1642.834	9888
1647.336	10002
1651.834	9967
1656.328	9938
1660.817	9892
1665.302	9802
1669.783	9603
1674.259	9381
1678.732	9048
1683.199	8768
1687.663	8442
1692.122	8222
1696.577	8045
1701.028	7952
1705.474	8020
1709.917	8138
1714.355	8058
1718.788	8087
1723.218	7961
1727.643	7792
1732.064	7684
1736.481	7518
1740.893	7326
1745.301	7126
1749.705	6886
1754.105	6688
1758.501	6514
1762.893	6369
1767.28	6196
1771.663	6052
1776.042	5958
1780.417	5887
1784.787	5897
1789.154	5928
1793.516	5997
1797.874	6100
1802.228	6201
1806.578	6252
1810.924	6254
1815.266	6173
1819.603	6168
1823.937	6057
1828.266	5949
1832.591	5851
1836.913	5789
1841.23	5708
1845.543	5696
1849.852	5666
1854.156	5637
1858.457	5652
1862.754	5619
1867.047	5643
1871.335	5638
1875.62	5582
1879.9	5557
1884.177	5537
1888.449	5451
1892.718	5461
1896.982	5337
1901.243	5323
1905.499	5243
1909.752	5252
1914	5217
1918.245	5229
1922.485	5276
1926.722	5280
1930.954	5355
1935.183	5404
1939.408	5474
1943.628	5492
1947.845	5546
1952.058	5529
1956.267	5470
1960.472	5434
1964.673	5319
1968.87	5234
1973.063	5185
1977.252	5080
1981.438	5048
1985.619	4994
1989.797	4993
1993.971	4952
1998.14	4919
2002.306	4923
2006.469	4899
2010.627	4867
2014.781	4853
2018.932	4774
2023.078	4770
2027.221	4696
2031.36	4617
2035.495	4562
2039.627	4488
2043.754	4421
2047.878	4378
2051.998	4345
2056.114	4340
2060.226	4326
2064.334	4325
2068.439	4319
2072.54	4358
2076.637	4376
2080.73	4421
2084.82	4436
2088.906	4441
2092.988	4437
2097.066	4431
2101.14	4392
2105.211	4350
2109.278	4359
2113.342	4337
2117.401	4275
2121.457	4251
2125.509	4250
2129.558	4272
2133.602	4216
2137.643	4186
2141.681	4168
2145.714	4137
2149.744	4115
2153.77	4091
2157.793	4058
2161.812	4000
2165.827	3929
2169.838	3879
2173.846	3830
2177.851	3756
2181.851	3701
2185.848	3632
2189.841	3618
2193.831	3588
2197.817	3555
2201.799	3527
2205.778	3529
2209.753	3506
2213.725	3516
2217.693	3483
2221.657	3485
2225.618	3460
2229.575	3430
2233.529	3423
2237.479	3362
2241.425	3345
2245.368	3300
2249.307	3252
2253.243	3186
2257.175	3183
2261.104	3101
2265.029	3077
2268.95	3044
2272.868	3014
2276.783	2979
2280.694	2953
2284.601	2915
2288.505	2900
2292.405	2856
2296.302	2836
2300.195	2791
2304.085	2762
2307.971	2736
2311.854	2703
2315.734	2658
2319.609	2640
2323.482	2585
2327.351	2578
2331.216	2561
2335.078	2536
2338.937	2496
2342.792	2505
2346.643	2484
2350.492	2510
2354.336	2507
2358.178	2499
2362.015	2521
2365.85	2510
2369.681	2514
2373.508	2511
2377.333	2517
2381.153	2518
2384.971	2492
2388.785	2474
2392.595	2447
2396.402	2433
2400.206	2397
2404.007	2376
2407.804	2394
2411.597	2357
2415.388	2349
2419.174	2334
2422.958	2321
2426.738	2291
2430.515	2298
2434.289	2262
2438.059	2238
2441.825	2220
2445.589	2208
2449.349	2176
2453.106	2142
2456.859	2092
2460.61	2083
2464.356	2066
2468.1	2033
2471.84	2007
2475.577	1987
2479.311	1988
2483.041	1994
2486.768	1979
2490.492	1953
2494.213	1924
2497.93	1934
2501.644	1919
2505.355	1939
2509.062	1913
2512.766	1895
2516.467	1874
2520.165	1865
2523.859	1876
2527.551	1831
2531.239	1824
2534.923	1816
2538.605	1787
2542.283	1780
2545.958	1771
2549.63	1787
2553.299	1772
2556.964	1765
2560.626	1762
2564.285	1756
2567.941	1753
2571.594	1721
2575.243	1725
2578.89	1703
2582.533	1697
2586.173	1686
2589.809	1674
2593.443	1651
2597.073	1636
2600.701	1626
2604.325	1615
2607.946	1619
2611.564	1584
2615.178	1598
2618.79	1567
2622.398	1567
2626.004	1518
2629.606	1516
2633.205	1506
2636.801	1484
2640.394	1471
2643.983	1432
2647.57	1416
2651.153	1395
2654.734	1373
2658.311	1353
2661.885	1351
2665.456	1326
2669.025	1301
2672.589	1295
2676.151	1265
2679.71	1257
2683.266	1226
2686.819	1208
2690.368	1180
2693.915	1160
2697.458	1139
2700.999	1120
2704.536	1083
2708.071	1064
2711.602	1046
2715.13	1026
2718.656	995
2722.178	962
2725.697	966
2729.214	929
2732.727	934
2736.237	944
2739.744	928
2743.249	925
2746.75	935
2750.248	927
2753.743	949
2757.236	960
2760.725	961
2764.211	971
2767.695	971
2771.175	952
2774.652	983
2778.127	972
2781.598	941
2785.067	957
2788.532	953
2791.995	952
2795.455	956
2798.911	949
2802.365	943
2805.816	957
2809.264	957
2812.709	945
2816.151	949
2819.59	942
2823.026	956
2826.46	944
2829.89	940
2833.318	960
2836.742	965
2840.164	966
2843.583	989
2846.999	994
2850.412	1009
2853.822	1007
2857.229	1028
2860.634	1045
2864.035	1085
2867.434	1099
2870.83	1112
2874.223	1136
2877.613	1157
2881	1176
2884.385	1220
2887.766	1182
2891.145	1187
2894.521	1208
2897.894	1193
2901.264	1177
2904.631	1176
2907.996	1180
2911.358	1194
2914.717	1193
2918.073	1215
2921.426	1237
2924.777	1240
2928.124	1280
2931.469	1301
2934.811	1329
2938.15	1350
2941.487	1342
2944.821	1357
2948.152	1361
2951.48	1354
2954.805	1331
2958.128	1317
2961.447	1314
2964.765	1292
2968.079	1304
2971.39	1313
2974.699	1342
2978.005	1374
2981.308	1412
2984.609	1403
2987.907	1439
2991.202	1445
2994.494	1507
2997.784	1504
3001.07	1537
3004.355	1576
3007.636	1585
3010.915	1630
3014.191	1628
3017.464	1647
3020.734	1653
3024.002	1693
3027.267	1688
3030.53	1717
3033.789	1715
3037.046	1749
3040.301	1778
3043.552	1825
3046.801	1870
3050.048	1890
3053.291	1950
3056.532	2007
3059.771	2046
3063.006	2117
3066.239	2160
3069.469	2237
3072.697	2320
3075.922	2361
3079.144	2422
3082.364	2451
3085.581	2533
3088.795	2593
3092.007	2616
3095.216	2676
3098.423	2760
3101.627	2805
3104.828	2904
3108.026	2963
3111.222	3017
3114.416	3053
3117.607	3153
3120.795	3255
3123.98	3323
3127.163	3394
3130.344	3466
3133.521	3549
3136.696	3648
3139.869	3728
3143.039	3753
3146.206	3833
3149.371	3880
3152.533	3903
3155.693	3945
3158.85	3946
3162.005	3991
3165.157	4007
3168.306	4015
3171.453	4007
3174.597	4027
3177.739	4025
3180.878	4034
3184.014	4058
3187.149	4042
3190.28	4051
3193.409	4079
3196.536	4076
3199.659	4065
3202.781	4097
3205.9	4069
3209.016	4078
3212.13	4037
3215.241	4033
3218.35	4023
3221.456	3957
3224.56	3923
3227.661	3869
3230.76	3837
3233.856	3793
3236.95	3763
3240.041	3735
3243.13	3682
3246.216	3650
3249.3	3636
3252.382	3613
3255.46	3614
3258.537	3623
3261.611	3592
3264.682	3622
3267.751	3597
3270.818	3589
3273.882	3558
3276.943	3559
3280.002	3527
3283.059	3499
3286.113	3472
3289.165	3429
3292.214	3369
3295.261	3311
3298.306	3264
3301.348	3201
3304.387	3142
3307.425	3121
3310.459	3043
3313.492	3012
3316.521	2964
3319.549	2946
3322.574	2954
3325.597	2887
3328.617	2860
3331.635	2852
3334.65	2837
3337.663	2809
3340.674	2809
3343.682	2814
3346.688	2791
3349.691	2792
3352.692	2770
3355.691	2757
3358.687	2705
3361.681	2682
3364.673	2672
3367.662	2601
3370.649	2572
3373.633	2540
3376.615	2506
3379.595	2454
3382.572	2425
3385.547	2404
3388.52	2363
3391.49	2310
3394.458	2266
3397.424	2238
3400.387	2227
3403.348	2188
3406.307	2168
3409.263	2138
3412.217	2115
3415.168	2104
3418.118	2085
3421.065	2040
3424.009	2010
3426.951	2003
3429.891	1940
3432.829	1906
3435.764	1846
3438.697	1815
3441.628	1760
3444.557	1698
3447.483	1651
3450.407	1612
3453.328	1563
3456.247	1483
3459.164	1429
3462.079	1398
3464.991	1345
3467.902	1298
3470.809	1247
3473.715	1198
3476.618	1161
3479.519	1111
3482.418	1070
3485.315	1043
3488.209	1005
3491.101	959
3493.99	909
3496.878	881
3499.763	839
3502.646	813
3505.527	781
3508.405	732
3511.281	704
3514.155	668
3517.027	623
3519.897	571
3522.764	535
3525.629	492
3528.492	448
3531.352	402
3534.211	371
3537.067	336
3539.921	285
3542.773	276
3545.622	218
3548.469	197
3551.315	182
3554.157	146
3556.998	119
3559.837	86
3562.673	69
3565.507	55
3568.339	33
3571.169	12
3573.996	-16
3576.822	-24
3579.645	-53
3582.466	-77
3585.285	-93
3588.101	-117
3590.916	-135
3593.728	-162
3596.538	-168
3599.346	-192
3602.152	-208
3604.956	-234
3607.757	-247
3610.556	-259
3613.354	-266
3616.149	-280
3618.942	-291
3621.732	-303
3624.521	-319
3627.307	-324
3630.092	-346
3632.874	-344
3635.654	-358
3638.432	-359
3641.208	-383
3643.982	-387
3646.753	-388
3649.523	-398
3652.29	-414
3655.055	-421
3657.818	-433
3660.579	-441
3663.338	-459
3666.095	-457
3668.849	-486
3671.602	-485
3674.352	-485
3677.101	-495
3679.847	-503
3682.591	-507
3685.333	-511
3688.073	-521
3690.811	-523
3693.547	-522
3696.281	-537
3699.013	-536
3701.742	-546
3704.47	-546
3707.195	-564
3709.919	-553
3712.64	-554
3715.359	-560
3718.076	-568
3720.792	-575
3723.505	-570
3726.216	-581
3728.925	-581
3731.632	-594
3734.336	-590
3737.039	-601
3739.74	-596
3742.439	-599
3745.136	-601
3747.83	-602
3750.523	-602
3753.213	-612
3755.902	-608
3758.589	-608
3761.273	-605
3763.956	-614
3766.636	-619
3769.315	-618
3771.991	-619
3774.665	-618
3777.338	-624
3780.008	-612
3782.677	-619
3785.343	-627
3788.007	-622
3790.67	-629
3793.33	-629
3795.989	-631
3798.645	-636
3801.299	-642
3803.952	-639
3806.602	-638
3809.251	-644
3811.897	-631
3814.542	-633
3817.184	-638
3819.825	-640
3822.463	-642
3825.1	-644
3827.735	-649
3830.367	-650
3832.998	-649
3835.627	-645
3838.253	-653
3840.878	-650
3843.501	-648
3846.122	-645
3848.741	-645
3851.358	-650
3853.973	-644
3856.586	-648
3859.197	-642
3861.806	-648
3864.414	-641
3867.019	-642
3869.622	-653
3872.224	-639
3874.823	-630
3877.421	-606
3880.016	-593
3882.61	-553
3885.202	-554
3887.792	-588
3890.38	-610
3892.966	-633
3895.55	-642
3898.132	-659
3900.713	-658
3903.291	-664
3905.868	-666
3908.442	-665
3911.015	-657
3913.586	-665
3916.155	-659
3918.722	-657
3921.287	-657
3923.85	-663
3926.411	-659
3928.971	-657
3931.528	-663
3934.084	-658
3936.638	-664
3939.19	-664
3941.74	-666
3944.288	-665
3946.834	-667
3949.378	-668
3951.921	-668
3954.462	-671
3957	-662
3959.537	-661
3962.072	-659
3964.606	-658
3967.137	-664
3969.667	-665
3972.194	-659
3974.72	-661
3977.244	-656
3979.766	-652
3982.286	-652
3984.805	-645
3987.321	-645
3989.836	-652
3992.349	-650
3994.86	-643
3997.369	-656
3999.877	-649
4002.382	-646
4004.886	-653
4007.388	-650
4009.888	-644
4012.386	-646
4014.883	-650
4017.377	-654
4019.87	-650
4022.361	-647
4024.85	-656
4027.338	-655
4029.823	-648
4032.307	-655
4034.789	-660
4037.269	-662
4039.747	-660
4042.224	-653
4044.699	-654
4047.172	-655
4049.643	-647
4052.112	-650
4054.58	-649
4057.046	-655
4059.51	-651
4061.972	-657
4064.432	-656
4066.891	-648
4069.348	-658
4071.803	-655
4074.256	-652
4076.708	-648
4079.158	-654
4081.606	-647
4084.052	-651
4086.497	-657
4088.939	-648
4091.38	-645
4093.819	-656
4096.257	-687
4098.693	-690
4101.127	-689
4103.559	-691
4105.989	-410
4108.418	-386
4110.845	-363
4113.27	-344
4115.694	-289
4118.115	-245
4120.535	-648
4122.954	-660
4125.37	-654
4127.785	-651
4130.198	-660
4132.609	-647
4135.019	-689
4137.427	-688
4139.833	-684
4142.237	-687
