Data from 2018-2-7_conc=3_RamanShift_28.txt Node
Date: Tue Feb 13 12:42:14 IST 2018
User: aro
Spectrometer: QEPB0276
Trigger mode: 0
Integration Time (sec): 3.000000E1
Scans to average: 1
Electric dark correction enabled: true
Nonlinearity correction enabled: false
Boxcar width: 0
XAxis mode: Raman Shifts
Number of Pixels in Spectrum: 1044
>>>>>Begin Spectral Data<<<<<
160.701	-167.9
166.742	28.1
172.777	587.1
178.805	2287.1
184.826	6246.1
190.841	12843.1
196.849	20380.1
202.85	25459.1
208.845	27131.1
214.833	26840.1
220.815	26377.1
226.789	26174.1
232.758	26086.1
238.719	25900.1
244.674	25587.1
250.623	25158.1
256.565	24586.1
262.5	24124.1
268.429	23728.1
274.351	23365.1
280.267	23065.1
286.176	22803.1
292.079	22599.1
297.975	22400.1
303.865	22148.1
309.748	21972.1
315.625	21885.1
321.495	21758.1
327.359	21655.1
333.217	21685.1
339.068	21587.1
344.912	21614.1
350.751	21537.1
356.583	21541.1
362.408	21525.1
368.227	21529.1
374.04	21461.1
379.847	21617.1
385.647	21751.1
391.44	21782.1
397.228	21831.1
403.009	21911.1
408.784	22042.1
414.553	22107.1
420.315	22154.1
426.071	22202.1
431.821	22125.1
437.565	22045.1
443.302	22110.1
449.033	22056.1
454.758	21993.1
460.477	21996.1
466.189	21926.1
471.896	21852.1
477.596	21826.1
483.29	21794.1
488.978	21747.1
494.66	21662.1
500.335	21573.1
506.005	21380.1
511.668	21075.1
517.325	20910.1
522.977	20695.1
528.622	20570.1
534.261	20453.1
539.894	20269.1
545.521	20261.1
551.141	20217.1
556.756	20143.1
562.365	20111.1
567.968	20010.1
573.565	19945.1
579.155	19873.1
584.74	19813.1
590.319	19723.1
595.892	19598.1
601.459	19547.1
607.02	19470.1
612.575	19368.1
618.124	19216.1
623.667	19118.1
629.204	19039.1
634.735	19025.1
640.261	18920.1
645.781	18860.1
651.294	18843.1
656.802	18810.1
662.304	18749.1
667.8	18685.1
673.29	18702.1
678.775	18688.1
684.254	18551.1
689.726	18578.1
695.193	18447.1
700.655	18417.1
706.11	18285.1
711.56	18204.1
717.004	18138.1
722.442	18092.1
727.874	18020.1
733.301	18049.1
738.722	17972.1
744.137	17941.1
749.547	17932.1
754.951	17826.1
760.349	17932.1
765.741	18172.1
771.128	18020.1
776.509	18061.1
781.885	17968.1
787.254	17920.1
792.618	17739.1
797.977	17650.1
803.33	17513.1
808.677	17451.1
814.019	17400.1
819.355	17289.1
824.686	17154.1
830.011	17177.1
835.33	17165.1
840.644	17186.1
845.952	17218.1
851.255	17220.1
856.552	17253.1
861.844	17270.1
867.13	17231.1
872.41	17086.1
877.686	17070.1
882.955	16935.1
888.219	16766.1
893.478	16573.1
898.731	16399.1
903.979	16227.1
909.221	16157.1
914.458	16086.1
919.69	16082.1
924.916	16106.1
930.136	16144.1
935.351	16212.1
940.561	16220.1
945.766	16178.1
950.965	16123.1
956.158	15898.1
961.347	15839.1
966.529	15606.1
971.707	15378.1
976.879	15254.1
982.046	15120.1
987.208	15081.1
992.364	15068.1
997.515	15159.1
1002.66	15302.1
1007.801	15457.1
1012.936	15594.1
1018.066	15599.1
1023.19	15603.1
1028.309	15548.1
1033.423	15521.1
1038.532	15450.1
1043.636	15325.1
1048.734	15208.1
1053.827	14939.1
1058.915	14773.1
1063.998	14717.1
1069.075	14656.1
1074.147	14676.1
1079.214	14748.1
1084.276	14850.1
1089.333	14930.1
1094.385	14915.1
1099.431	15006.1
1104.472	15049.1
1109.509	14973.1
1114.54	14719.1
1119.565	14595.1
1124.586	14414.1
1129.602	14280.1
1134.613	14141.1
1139.618	14067.1
1144.619	14009.1
1149.614	14055.1
1154.604	14111.1
1159.589	14087.1
1164.57	14152.1
1169.545	14198.1
1174.515	14151.1
1179.48	14077.1
1184.44	14000.1
1189.395	13856.1
1194.345	13785.1
1199.29	13718.1
1204.23	13704.1
1209.165	13798.1
1214.095	13887.1
1219.021	13917.1
1223.941	13989.1
1228.856	14101.1
1233.766	14108.1
1238.672	14105.1
1243.572	14139.1
1248.467	13983.1
1253.358	13832.1
1258.244	13695.1
1263.124	13452.1
1268	13261.1
1272.871	13088.1
1277.737	13014.1
1282.599	12892.1
1287.455	12941.1
1292.306	12965.1
1297.153	12987.1
1301.995	13054.1
1306.832	13065.1
1311.664	13110.1
1316.491	13071.1
1321.314	12918.1
1326.132	12685.1
1330.945	12404.1
1335.753	12083.1
1340.556	11786.1
1345.354	11590.1
1350.148	11410.1
1354.937	11331.1
1359.722	11374.1
1364.501	11420.1
1369.276	11568.1
1374.046	11719.1
1378.811	11858.1
1383.572	12006.1
1388.327	12024.1
1393.079	11959.1
1397.825	11824.1
1402.567	11650.1
1407.304	11479.1
1412.036	11336.1
1416.764	11319.1
1421.487	11221.1
1426.205	11201.1
1430.919	11158.1
1435.628	11122.1
1440.333	11154.1
1445.032	11154.1
1449.727	11177.1
1454.418	11127.1
1459.104	11037.1
1463.785	10855.1
1468.462	10572.1
1473.134	10332.1
1477.802	10163.1
1482.465	9990.1
1487.123	9861.1
1491.777	9864.1
1496.426	9934.1
1501.071	10014.1
1505.711	10214.1
1510.347	10423.1
1514.978	10562.1
1519.604	10724.1
1524.226	10781.1
1528.844	10840.1
1533.457	10777.1
1538.065	10781.1
1542.669	10686.1
1547.269	10582.1
1551.864	10494.1
1556.454	10474.1
1561.041	10454.1
1565.622	10490.1
1570.199	10482.1
1574.772	10561.1
1579.34	10600.1
1583.904	10649.1
1588.464	10659.1
1593.019	10669.1
1597.569	10629.1
1602.115	10575.1
1606.657	10466.1
1611.195	10426.1
1615.728	10335.1
1620.256	10261.1
1624.78	10289.1
1629.3	10295.1
1633.816	10350.1
1638.327	10354.1
1642.834	10402.1
1647.336	10438.1
1651.834	10437.1
1656.328	10429.1
1660.817	10365.1
1665.302	10272.1
1669.783	10093.1
1674.259	9894.1
1678.732	9591.1
1683.199	9217.1
1687.663	8951.1
1692.122	8706.1
1696.577	8578.1
1701.028	8589.1
1705.474	8660.1
1709.917	8751.1
1714.355	8763.1
1718.788	8712.1
1723.218	8609.1
1727.643	8473.1
1732.064	8281.1
1736.481	8115.1
1740.893	7911.1
1745.301	7697.1
1749.705	7482.1
1754.105	7245.1
1758.501	7042.1
1762.893	6857.1
1767.28	6696.1
1771.663	6527.1
1776.042	6443.1
1780.417	6379.1
1784.787	6378.1
1789.154	6405.1
1793.516	6584.1
1797.874	6705.1
1802.228	6799.1
1806.578	6895.1
1810.924	6926.1
1815.266	6846.1
1819.603	6735.1
1823.937	6613.1
1828.266	6517.1
1832.591	6414.1
1836.913	6330.1
1841.23	6270.1
1845.543	6227.1
1849.852	6223.1
1854.156	6175.1
1858.457	6179.1
1862.754	6178.1
1867.047	6147.1
1871.335	6143.1
1875.62	6129.1
1879.9	6108.1
1884.177	6025.1
1888.449	6006.1
1892.718	5955.1
1896.982	5863.1
1901.243	5793.1
1905.499	5772.1
1909.752	5784.1
1914	5749.1
1918.245	5773.1
1922.485	5823.1
1926.722	5862.1
1930.954	5957.1
1935.183	6039.1
1939.408	6069.1
1943.628	6146.1
1947.845	6126.1
1952.058	6129.1
1956.267	6053.1
1960.472	6008.1
1964.673	5907.1
1968.87	5796.1
1973.063	5727.1
1977.252	5664.1
1981.438	5591.1
1985.619	5518.1
1989.797	5474.1
1993.971	5412.1
1998.14	5398.1
2002.306	5374.1
2006.469	5365.1
2010.627	5349.1
2014.781	5311.1
2018.932	5233.1
2023.078	5211.1
2027.221	5162.1
2031.36	5062.1
2035.495	4955.1
2039.627	4900.1
2043.754	4807.1
2047.878	4776.1
2051.998	4752.1
2056.114	4726.1
2060.226	4740.1
2064.334	4757.1
2068.439	4760.1
2072.54	4785.1
2076.637	4838.1
2080.73	4854.1
2084.82	4856.1
2088.906	4915.1
2092.988	4894.1
2097.066	4872.1
2101.14	4864.1
2105.211	4855.1
2109.278	4770.1
2113.342	4780.1
2117.401	4748.1
2121.457	4727.1
2125.509	4709.1
2129.558	4668.1
2133.602	4645.1
2137.643	4629.1
2141.681	4604.1
2145.714	4575.1
2149.744	4541.1
2153.77	4523.1
2157.793	4466.1
2161.812	4408.1
2165.827	4331.1
2169.838	4246.1
2173.846	4192.1
2177.851	4112.1
2181.851	4079.1
2185.848	4028.1
2189.841	4015.1
2193.831	3947.1
2197.817	3928.1
2201.799	3929.1
2205.778	3892.1
2209.753	3863.1
2213.725	3887.1
2217.693	3851.1
2221.657	3826.1
2225.618	3842.1
2229.575	3822.1
2233.529	3771.1
2237.479	3719.1
2241.425	3712.1
2245.368	3632.1
2249.307	3582.1
2253.243	3545.1
2257.175	3513.1
2261.104	3439.1
2265.029	3421.1
2268.95	3390.1
2272.868	3352.1
2276.783	3303.1
2280.694	3285.1
2284.601	3249.1
2288.505	3214.1
2292.405	3210.1
2296.302	3161.1
2300.195	3126.1
2304.085	3076.1
2307.971	3057.1
2311.854	2997.1
2315.734	2970.1
2319.609	2923.1
2323.482	2868.1
2327.351	2866.1
2331.216	2862.1
2335.078	2805.1
2338.937	2819.1
2342.792	2790.1
2346.643	2767.1
2350.492	2801.1
2354.336	2807.1
2358.178	2785.1
2362.015	2798.1
2365.85	2809.1
2369.681	2822.1
2373.508	2803.1
2377.333	2824.1
2381.153	2802.1
2384.971	2807.1
2388.785	2759.1
2392.595	2755.1
2396.402	2735.1
2400.206	2693.1
2404.007	2691.1
2407.804	2657.1
2411.597	2650.1
2415.388	2652.1
2419.174	2622.1
2422.958	2601.1
2426.738	2579.1
2430.515	2562.1
2434.289	2522.1
2438.059	2526.1
2441.825	2482.1
2445.589	2462.1
2449.349	2432.1
2453.106	2414.1
2456.859	2360.1
2460.61	2354.1
2464.356	2334.1
2468.1	2304.1
2471.84	2279.1
2475.577	2249.1
2479.311	2252.1
2483.041	2212.1
2486.768	2211.1
2490.492	2196.1
2494.213	2208.1
2497.93	2205.1
2501.644	2186.1
2505.355	2164.1
2509.062	2168.1
2512.766	2157.1
2516.467	2130.1
2520.165	2137.1
2523.859	2100.1
2527.551	2087.1
2531.239	2082.1
2534.923	2068.1
2538.605	2065.1
2542.283	2086.1
2545.958	2069.1
2549.63	2045.1
2553.299	2039.1
2556.964	2041.1
2560.626	2036.1
2564.285	2036.1
2567.941	2028.1
2571.594	2010.1
2575.243	2001.1
2578.89	1987.1
2582.533	1944.1
2586.173	1942.1
2589.809	1945.1
2593.443	1916.1
2597.073	1889.1
2600.701	1879.1
2604.325	1866.1
2607.946	1878.1
2611.564	1850.1
2615.178	1828.1
2618.79	1831.1
2622.398	1821.1
2626.004	1765.1
2629.606	1764.1
2633.205	1735.1
2636.801	1705.1
2640.394	1706.1
2643.983	1677.1
2647.57	1628.1
2651.153	1627.1
2654.734	1607.1
2658.311	1567.1
2661.885	1536.1
2665.456	1535.1
2669.025	1506.1
2672.589	1494.1
2676.151	1469.1
2679.71	1461.1
2683.266	1431.1
2686.819	1412.1
2690.368	1380.1
2693.915	1361.1
2697.458	1316.1
2700.999	1292.1
2704.536	1254.1
2708.071	1227.1
2711.602	1202.1
2715.13	1171.1
2718.656	1153.1
2722.178	1114.1
2725.697	1104.1
2729.214	1084.1
2732.727	1086.1
2736.237	1068.1
2739.744	1085.1
2743.249	1086.1
2746.75	1093.1
2750.248	1095.1
2753.743	1101.1
2757.236	1118.1
2760.725	1125.1
2764.211	1162.1
2767.695	1144.1
2771.175	1142.1
2774.652	1140.1
2778.127	1151.1
2781.598	1113.1
2785.067	1125.1
2788.532	1138.1
2791.995	1132.1
2795.455	1124.1
2798.911	1118.1
2802.365	1141.1
2805.816	1130.1
2809.264	1120.1
2812.709	1114.1
2816.151	1097.1
2819.59	1125.1
2823.026	1115.1
2826.46	1106.1
2829.89	1108.1
2833.318	1107.1
2836.742	1106.1
2840.164	1134.1
2843.583	1135.1
2846.999	1141.1
2850.412	1164.1
2853.822	1164.1
2857.229	1164.1
2860.634	1175.1
2864.035	1222.1
2867.434	1221.1
2870.83	1256.1
2874.223	1269.1
2877.613	1304.1
2881	1318.1
2884.385	1299.1
2887.766	1292.1
2891.145	1316.1
2894.521	1301.1
2897.894	1300.1
2901.264	1284.1
2904.631	1297.1
2907.996	1291.1
2911.358	1292.1
2914.717	1302.1
2918.073	1297.1
2921.426	1318.1
2924.777	1336.1
2928.124	1363.1
2931.469	1375.1
2934.811	1417.1
2938.15	1413.1
2941.487	1427.1
2944.821	1428.1
2948.152	1427.1
2951.48	1414.1
2954.805	1386.1
2958.128	1354.1
2961.447	1385.1
2964.765	1372.1
2968.079	1377.1
2971.39	1379.1
2974.699	1416.1
2978.005	1423.1
2981.308	1442.1
2984.609	1459.1
2987.907	1488.1
2991.202	1512.1
2994.494	1550.1
2997.784	1571.1
3001.07	1595.1
3004.355	1635.1
3007.636	1659.1
3010.915	1661.1
3014.191	1703.1
3017.464	1703.1
3020.734	1710.1
3024.002	1722.1
3027.267	1709.1
3030.53	1736.1
3033.789	1733.1
3037.046	1759.1
3040.301	1822.1
3043.552	1829.1
3046.801	1868.1
3050.048	1914.1
3053.291	1971.1
3056.532	2014.1
3059.771	2063.1
3063.006	2117.1
3066.239	2191.1
3069.469	2248.1
3072.697	2307.1
3075.922	2355.1
3079.144	2439.1
3082.364	2451.1
3085.581	2539.1
3088.795	2563.1
3092.007	2651.1
3095.216	2695.1
3098.423	2758.1
3101.627	2775.1
3104.828	2852.1
3108.026	2919.1
3111.222	2998.1
3114.416	3049.1
3117.607	3117.1
3120.795	3192.1
3123.98	3261.1
3127.163	3350.1
3130.344	3435.1
3133.521	3507.1
3136.696	3565.1
3139.869	3658.1
3143.039	3737.1
3146.206	3757.1
3149.371	3809.1
3152.533	3811.1
3155.693	3842.1
3158.85	3879.1
3162.005	3923.1
3165.157	3933.1
3168.306	3907.1
3171.453	3904.1
3174.597	3914.1
3177.739	3943.1
3180.878	3928.1
3184.014	3949.1
3187.149	3964.1
3190.28	3933.1
3193.409	3949.1
3196.536	3960.1
3199.659	3990.1
3202.781	3995.1
3205.9	3950.1
3209.016	3946.1
3212.13	3933.1
3215.241	3887.1
3218.35	3887.1
3221.456	3820.1
3224.56	3773.1
3227.661	3764.1
3230.76	3726.1
3233.856	3674.1
3236.95	3655.1
3240.041	3603.1
3243.13	3566.1
3246.216	3551.1
3249.3	3525.1
3252.382	3513.1
3255.46	3508.1
3258.537	3472.1
3261.611	3497.1
3264.682	3473.1
3267.751	3488.1
3270.818	3478.1
3273.882	3444.1
3276.943	3418.1
3280.002	3417.1
3283.059	3351.1
3286.113	3321.1
3289.165	3293.1
3292.214	3245.1
3295.261	3178.1
3298.306	3146.1
3301.348	3071.1
3304.387	3038.1
3307.425	2961.1
3310.459	2966.1
3313.492	2902.1
3316.521	2854.1
3319.549	2823.1
3322.574	2798.1
3325.597	2780.1
3328.617	2766.1
3331.635	2744.1
3334.65	2698.1
3337.663	2682.1
3340.674	2694.1
3343.682	2685.1
3346.688	2657.1
3349.691	2681.1
3352.692	2618.1
3355.691	2633.1
3358.687	2585.1
3361.681	2558.1
3364.673	2538.1
3367.662	2501.1
3370.649	2461.1
3373.633	2445.1
3376.615	2398.1
3379.595	2378.1
3382.572	2340.1
3385.547	2301.1
3388.52	2267.1
3391.49	2204.1
3394.458	2153.1
3397.424	2160.1
3400.387	2123.1
3403.348	2092.1
3406.307	2069.1
3409.263	2067.1
3412.217	2018.1
3415.168	2029.1
3418.118	1978.1
3421.065	1931.1
3424.009	1912.1
3426.951	1898.1
3429.891	1833.1
3432.829	1802.1
3435.764	1769.1
3438.697	1719.1
3441.628	1674.1
3444.557	1617.1
3447.483	1575.1
3450.407	1540.1
3453.328	1477.1
3456.247	1422.1
3459.164	1349.1
3462.079	1317.1
3464.991	1254.1
3467.902	1212.1
3470.809	1175.1
3473.715	1125.1
3476.618	1084.1
3479.519	1042.1
3482.418	1002.1
3485.315	977.1
3488.209	929.1
3491.101	892.1
3493.99	864.1
3496.878	824.1
3499.763	801.1
3502.646	766.1
3505.527	719.1
3508.405	701.1
3511.281	650.1
3514.155	616.1
3517.027	583.1
3519.897	548.1
3522.764	499.1
3525.629	448.1
3528.492	411.1
3531.352	361.1
3534.211	336.1
3537.067	307.1
3539.921	268.1
3542.773	235.1
3545.622	185.1
3548.469	176.1
3551.315	148.1
3554.157	122.1
3556.998	82.1
3559.837	74.1
3562.673	42.1
3565.507	16.1
3568.339	-3.9
3571.169	-15.9
3573.996	-40.9
3576.822	-53.9
3579.645	-70.9
3582.466	-91.9
3585.285	-106.9
3588.101	-120.9
3590.916	-143.9
3593.728	-171.9
3596.538	-202.9
3599.346	-203.9
3602.152	-227.9
3604.956	-240.9
3607.757	-256.9
3610.556	-271.9
3613.354	-288.9
3616.149	-282.9
3618.942	-306.9
3621.732	-312.9
3624.521	-311.9
3627.307	-332.9
3630.092	-349.9
3632.874	-355.9
3635.654	-364.9
3638.432	-369.9
3641.208	-373.9
3643.982	-392.9
3646.753	-396.9
3649.523	-402.9
3652.29	-415.9
3655.055	-427.9
3657.818	-439.9
3660.579	-440.9
3663.338	-444.9
3666.095	-463.9
3668.849	-472.9
3671.602	-477.9
3674.352	-483.9
3677.101	-486.9
3679.847	-498.9
3682.591	-499.9
3685.333	-507.9
3688.073	-511.9
3690.811	-523.9
3693.547	-519.9
3696.281	-528.9
3699.013	-539.9
3701.742	-545.9
3704.47	-546.9
3707.195	-553.9
3709.919	-556.9
3712.64	-551.9
3715.359	-557.9
3718.076	-553.9
3720.792	-570.9
3723.505	-568.9
3726.216	-575.9
3728.925	-571.9
3731.632	-583.9
3734.336	-580.9
3737.039	-592.9
3739.74	-588.9
3742.439	-595.9
3745.136	-588.9
3747.83	-600.9
3750.523	-592.9
3753.213	-602.9
3755.902	-606.9
3758.589	-604.9
3761.273	-605.9
3763.956	-616.9
3766.636	-603.9
3769.315	-614.9
3771.991	-612.9
3774.665	-614.9
3777.338	-609.9
3780.008	-611.9
3782.677	-613.9
3785.343	-615.9
3788.007	-615.9
3790.67	-616.9
3793.33	-624.9
3795.989	-620.9
3798.645	-623.9
3801.299	-626.9
3803.952	-633.9
3806.602	-630.9
3809.251	-633.9
3811.897	-629.9
3814.542	-623.9
3817.184	-633.9
3819.825	-631.9
3822.463	-627.9
3825.1	-631.9
3827.735	-640.9
3830.367	-639.9
3832.998	-637.9
3835.627	-640.9
3838.253	-642.9
3840.878	-641.9
3843.501	-642.9
3846.122	-641.9
3848.741	-643.9
3851.358	-643.9
3853.973	-638.9
3856.586	-645.9
3859.197	-647.9
3861.806	-643.9
3864.414	-634.9
3867.019	-638.9
3869.622	-640.9
3872.224	-635.9
3874.823	-624.9
3877.421	-610.9
3880.016	-597.9
3882.61	-562.9
3885.202	-558.9
3887.792	-578.9
3890.38	-614.9
3892.966	-630.9
3895.55	-640.9
3898.132	-649.9
3900.713	-652.9
3903.291	-651.9
3905.868	-652.9
3908.442	-658.9
3911.015	-651.9
3913.586	-651.9
3916.155	-652.9
3918.722	-651.9
3921.287	-651.9
3923.85	-656.9
3926.411	-654.9
3928.971	-656.9
3931.528	-662.9
3934.084	-652.9
3936.638	-660.9
3939.19	-662.9
3941.74	-664.9
3944.288	-665.9
3946.834	-663.9
3949.378	-660.9
3951.921	-662.9
3954.462	-658.9
3957	-650.9
3959.537	-650.9
3962.072	-655.9
3964.606	-653.9
3967.137	-657.9
3969.667	-658.9
3972.194	-651.9
3974.72	-651.9
3977.244	-647.9
3979.766	-649.9
3982.286	-653.9
3984.805	-642.9
3987.321	-645.9
3989.836	-648.9
3992.349	-641.9
3994.86	-639.9
3997.369	-654.9
3999.877	-636.9
4002.382	-641.9
4004.886	-649.9
4007.388	-643.9
4009.888	-643.9
4012.386	-644.9
4014.883	-642.9
4017.377	-644.9
4019.87	-642.9
4022.361	-645.9
4024.85	-650.9
4027.338	-646.9
4029.823	-645.9
4032.307	-650.9
4034.789	-649.9
4037.269	-656.9
4039.747	-656.9
4042.224	-647.9
4044.699	-651.9
4047.172	-650.9
4049.643	-643.9
4052.112	-648.9
4054.58	-641.9
4057.046	-648.9
4059.51	-645.9
4061.972	-652.9
4064.432	-649.9
4066.891	-644.9
4069.348	-648.9
4071.803	-650.9
4074.256	-652.9
4076.708	-649.9
4079.158	-650.9
4081.606	-648.9
4084.052	-645.9
4086.497	-651.9
4088.939	-637.9
4091.38	-637.9
4093.819	-638.9
4096.257	-684.9
4098.693	-685.9
4101.127	-684.9
4103.559	-681.9
4105.989	-397.9
4108.418	-393.9
4110.845	-365.9
4113.27	-345.9
4115.694	-296.9
4118.115	-241.9
4120.535	-639.9
4122.954	-651.9
4125.37	-648.9
4127.785	-647.9
4130.198	-653.9
4132.609	-636.9
4135.019	-682.9
4137.427	-685.9
4139.833	-683.9
4142.237	-681.9
