Data from 2018-2-7_conc=3_RamanShift_29.txt Node
Date: Tue Feb 13 12:42:44 IST 2018
User: aro
Spectrometer: QEPB0276
Trigger mode: 0
Integration Time (sec): 3.000000E1
Scans to average: 1
Electric dark correction enabled: true
Nonlinearity correction enabled: false
Boxcar width: 0
XAxis mode: Raman Shifts
Number of Pixels in Spectrum: 1044
>>>>>Begin Spectral Data<<<<<
160.701	-165.1
166.742	44.9
172.777	580.9
178.805	2219.9
184.826	6087.9
190.841	12581.9
196.849	19959.9
202.85	24986.9
208.845	26578.9
214.833	26187.9
220.815	25752.9
226.789	25566.9
232.758	25454.9
238.719	25292.9
244.674	24956.9
250.623	24470.9
256.565	23877.9
262.5	23406.9
268.429	22995.9
274.351	22648.9
280.267	22344.9
286.176	22070.9
292.079	21826.9
297.975	21667.9
303.865	21461.9
309.748	21226.9
315.625	21102.9
321.495	20975.9
327.359	20974.9
333.217	20894.9
339.068	20817.9
344.912	20864.9
350.751	20816.9
356.583	20786.9
362.408	20807.9
368.227	20776.9
374.04	20768.9
379.847	20787.9
385.647	20897.9
391.44	21056.9
397.228	21033.9
403.009	21158.9
408.784	21239.9
414.553	21209.9
420.315	21436.9
426.071	21336.9
431.821	21359.9
437.565	21367.9
443.302	21328.9
449.033	21244.9
454.758	21200.9
460.477	21189.9
466.189	21154.9
471.896	21084.9
477.596	21013.9
483.29	21046.9
488.978	20983.9
494.66	20893.9
500.335	20742.9
506.005	20562.9
511.668	20344.9
517.325	20097.9
522.977	19852.9
528.622	19789.9
534.261	19689.9
539.894	19516.9
545.521	19436.9
551.141	19475.9
556.756	19385.9
562.365	19305.9
567.968	19195.9
573.565	19199.9
579.155	19111.9
584.74	18989.9
590.319	18939.9
595.892	18895.9
601.459	18726.9
607.02	18690.9
612.575	18592.9
618.124	18476.9
623.667	18424.9
629.204	18307.9
634.735	18207.9
640.261	18186.9
645.781	18118.9
651.294	18083.9
656.802	18039.9
662.304	17997.9
667.8	18007.9
673.29	17955.9
678.775	17925.9
684.254	17819.9
689.726	17821.9
695.193	17755.9
700.655	17634.9
706.11	17559.9
711.56	17478.9
717.004	17422.9
722.442	17353.9
727.874	17282.9
733.301	17251.9
738.722	17163.9
744.137	17108.9
749.547	17169.9
754.951	17128.9
760.349	17166.9
765.741	17167.9
771.128	17164.9
776.509	17109.9
781.885	17179.9
787.254	17064.9
792.618	17038.9
797.977	16970.9
803.33	16858.9
808.677	16689.9
814.019	16712.9
819.355	16587.9
824.686	16496.9
830.011	16523.9
835.33	16496.9
840.644	16456.9
845.952	16554.9
851.255	16561.9
856.552	16587.9
861.844	16513.9
867.13	16432.9
872.41	16476.9
877.686	16374.9
882.955	16262.9
888.219	16044.9
893.478	15914.9
898.731	15734.9
903.979	15567.9
909.221	15425.9
914.458	15432.9
919.69	15400.9
924.916	15473.9
930.136	15489.9
935.351	15557.9
940.561	15515.9
945.766	15524.9
950.965	15436.9
956.158	15314.9
961.347	15146.9
966.529	15007.9
971.707	14826.9
976.879	14621.9
982.046	14513.9
987.208	14418.9
992.364	14465.9
997.515	14549.9
1002.66	14654.9
1007.801	14843.9
1012.936	14958.9
1018.066	14959.9
1023.19	14930.9
1028.309	14946.9
1033.423	14924.9
1038.532	14861.9
1043.636	14708.9
1048.734	14488.9
1053.827	14366.9
1058.915	14174.9
1063.998	14124.9
1069.075	14044.9
1074.147	14107.9
1079.214	14138.9
1084.276	14221.9
1089.333	14328.9
1094.385	14318.9
1099.431	14365.9
1104.472	14461.9
1109.509	14372.9
1114.54	14124.9
1119.565	14003.9
1124.586	13768.9
1129.602	13732.9
1134.613	13557.9
1139.618	13477.9
1144.619	13433.9
1149.614	13450.9
1154.604	13507.9
1159.589	13522.9
1164.57	13573.9
1169.545	13570.9
1174.515	13554.9
1179.48	13537.9
1184.44	13407.9
1189.395	13271.9
1194.345	13192.9
1199.29	13176.9
1204.23	13151.9
1209.165	13242.9
1214.095	13262.9
1219.021	13329.9
1223.941	13442.9
1228.856	13504.9
1233.766	13551.9
1238.672	13590.9
1243.572	13545.9
1248.467	13428.9
1253.358	13335.9
1258.244	13055.9
1263.124	12909.9
1268	12767.9
1272.871	12618.9
1277.737	12496.9
1282.599	12459.9
1287.455	12387.9
1292.306	12434.9
1297.153	12477.9
1301.995	12520.9
1306.832	12600.9
1311.664	12592.9
1316.491	12560.9
1321.314	12433.9
1326.132	12229.9
1330.945	11940.9
1335.753	11634.9
1340.556	11313.9
1345.354	11158.9
1350.148	10939.9
1354.937	10907.9
1359.722	10885.9
1364.501	10988.9
1369.276	11066.9
1374.046	11238.9
1378.811	11375.9
1383.572	11563.9
1388.327	11520.9
1393.079	11509.9
1397.825	11349.9
1402.567	11192.9
1407.304	11093.9
1412.036	10952.9
1416.764	10885.9
1421.487	10789.9
1426.205	10703.9
1430.919	10693.9
1435.628	10692.9
1440.333	10697.9
1445.032	10752.9
1449.727	10762.9
1454.418	10729.9
1459.104	10662.9
1463.785	10446.9
1468.462	10194.9
1473.134	9942.9
1477.802	9803.9
1482.465	9618.9
1487.123	9555.9
1491.777	9490.9
1496.426	9483.9
1501.071	9678.9
1505.711	9831.9
1510.347	9982.9
1514.978	10182.9
1519.604	10308.9
1524.226	10406.9
1528.844	10413.9
1533.457	10351.9
1538.065	10363.9
1542.669	10268.9
1547.269	10206.9
1551.864	10131.9
1556.454	10109.9
1561.041	10079.9
1565.622	10113.9
1570.199	10114.9
1574.772	10172.9
1579.34	10249.9
1583.904	10259.9
1588.464	10290.9
1593.019	10302.9
1597.569	10262.9
1602.115	10241.9
1606.657	10163.9
1611.195	10060.9
1615.728	10022.9
1620.256	9943.9
1624.78	9930.9
1629.3	9940.9
1633.816	9986.9
1638.327	10016.9
1642.834	10024.9
1647.336	10131.9
1651.834	10157.9
1656.328	10089.9
1660.817	10080.9
1665.302	9946.9
1669.783	9787.9
1674.259	9549.9
1678.732	9216.9
1683.199	8933.9
1687.663	8633.9
1692.122	8406.9
1696.577	8295.9
1701.028	8275.9
1705.474	8331.9
1709.917	8438.9
1714.355	8437.9
1718.788	8387.9
1723.218	8264.9
1727.643	8154.9
1732.064	7981.9
1736.481	7808.9
1740.893	7592.9
1745.301	7411.9
1749.705	7166.9
1754.105	6977.9
1758.501	6747.9
1762.893	6612.9
1767.28	6412.9
1771.663	6298.9
1776.042	6177.9
1780.417	6126.9
1784.787	6115.9
1789.154	6191.9
1793.516	6304.9
1797.874	6456.9
1802.228	6559.9
1806.578	6636.9
1810.924	6603.9
1815.266	6545.9
1819.603	6450.9
1823.937	6384.9
1828.266	6273.9
1832.591	6172.9
1836.913	6094.9
1841.23	6006.9
1845.543	6008.9
1849.852	5980.9
1854.156	5926.9
1858.457	5923.9
1862.754	5896.9
1867.047	5929.9
1871.335	5904.9
1875.62	5905.9
1879.9	5867.9
1884.177	5814.9
1888.449	5761.9
1892.718	5699.9
1896.982	5629.9
1901.243	5576.9
1905.499	5515.9
1909.752	5528.9
1914	5528.9
1918.245	5531.9
1922.485	5589.9
1926.722	5637.9
1930.954	5716.9
1935.183	5783.9
1939.408	5863.9
1943.628	5891.9
1947.845	5895.9
1952.058	5889.9
1956.267	5832.9
1960.472	5772.9
1964.673	5682.9
1968.87	5571.9
1973.063	5498.9
1977.252	5449.9
1981.438	5344.9
1985.619	5329.9
1989.797	5296.9
1993.971	5220.9
1998.14	5243.9
2002.306	5210.9
2006.469	5171.9
2010.627	5141.9
2014.781	5104.9
2018.932	5068.9
2023.078	5017.9
2027.221	4958.9
2031.36	4881.9
2035.495	4790.9
2039.627	4710.9
2043.754	4662.9
2047.878	4608.9
2051.998	4581.9
2056.114	4569.9
2060.226	4579.9
2064.334	4596.9
2068.439	4605.9
2072.54	4616.9
2076.637	4672.9
2080.73	4653.9
2084.82	4709.9
2088.906	4711.9
2092.988	4726.9
2097.066	4729.9
2101.14	4691.9
2105.211	4660.9
2109.278	4636.9
2113.342	4653.9
2117.401	4584.9
2121.457	4559.9
2125.509	4548.9
2129.558	4524.9
2133.602	4514.9
2137.643	4464.9
2141.681	4475.9
2145.714	4411.9
2149.744	4379.9
2153.77	4379.9
2157.793	4323.9
2161.812	4254.9
2165.827	4198.9
2169.838	4134.9
2173.846	4060.9
2177.851	4005.9
2181.851	3939.9
2185.848	3900.9
2189.841	3857.9
2193.831	3820.9
2197.817	3779.9
2201.799	3769.9
2205.778	3768.9
2209.753	3740.9
2213.725	3720.9
2217.693	3702.9
2221.657	3724.9
2225.618	3666.9
2229.575	3676.9
2233.529	3639.9
2237.479	3616.9
2241.425	3555.9
2245.368	3547.9
2249.307	3489.9
2253.243	3415.9
2257.175	3387.9
2261.104	3328.9
2265.029	3291.9
2268.95	3271.9
2272.868	3235.9
2276.783	3206.9
2280.694	3176.9
2284.601	3151.9
2288.505	3127.9
2292.405	3078.9
2296.302	3070.9
2300.195	3031.9
2304.085	2986.9
2307.971	2954.9
2311.854	2902.9
2315.734	2870.9
2319.609	2838.9
2323.482	2795.9
2327.351	2765.9
2331.216	2756.9
2335.078	2721.9
2338.937	2719.9
2342.792	2699.9
2346.643	2704.9
2350.492	2685.9
2354.336	2699.9
2358.178	2696.9
2362.015	2724.9
2365.85	2713.9
2369.681	2719.9
2373.508	2716.9
2377.333	2746.9
2381.153	2711.9
2384.971	2735.9
2388.785	2691.9
2392.595	2660.9
2396.402	2629.9
2400.206	2606.9
2404.007	2593.9
2407.804	2577.9
2411.597	2565.9
2415.388	2539.9
2419.174	2526.9
2422.958	2504.9
2426.738	2496.9
2430.515	2471.9
2434.289	2461.9
2438.059	2447.9
2441.825	2425.9
2445.589	2386.9
2449.349	2373.9
2453.106	2337.9
2456.859	2312.9
2460.61	2263.9
2464.356	2246.9
2468.1	2225.9
2471.84	2203.9
2475.577	2189.9
2479.311	2163.9
2483.041	2163.9
2486.768	2160.9
2490.492	2155.9
2494.213	2140.9
2497.93	2130.9
2501.644	2123.9
2505.355	2116.9
2509.062	2080.9
2512.766	2079.9
2516.467	2065.9
2520.165	2070.9
2523.859	2067.9
2527.551	2037.9
2531.239	2005.9
2534.923	2010.9
2538.605	2002.9
2542.283	1984.9
2545.958	1977.9
2549.63	1974.9
2553.299	1975.9
2556.964	1984.9
2560.626	1986.9
2564.285	1977.9
2567.941	1949.9
2571.594	1945.9
2575.243	1912.9
2578.89	1949.9
2582.533	1927.9
2586.173	1900.9
2589.809	1886.9
2593.443	1863.9
2597.073	1831.9
2600.701	1835.9
2604.325	1803.9
2607.946	1805.9
2611.564	1791.9
2615.178	1785.9
2618.79	1761.9
2622.398	1765.9
2626.004	1722.9
2629.606	1715.9
2633.205	1695.9
2636.801	1667.9
2640.394	1641.9
2643.983	1618.9
2647.57	1598.9
2651.153	1588.9
2654.734	1561.9
2658.311	1513.9
2661.885	1522.9
2665.456	1456.9
2669.025	1455.9
2672.589	1454.9
2676.151	1432.9
2679.71	1405.9
2683.266	1383.9
2686.819	1371.9
2690.368	1321.9
2693.915	1306.9
2697.458	1283.9
2700.999	1254.9
2704.536	1228.9
2708.071	1201.9
2711.602	1169.9
2715.13	1143.9
2718.656	1119.9
2722.178	1096.9
2725.697	1071.9
2729.214	1088.9
2732.727	1067.9
2736.237	1064.9
2739.744	1047.9
2743.249	1048.9
2746.75	1062.9
2750.248	1061.9
2753.743	1083.9
2757.236	1090.9
2760.725	1092.9
2764.211	1127.9
2767.695	1110.9
2771.175	1129.9
2774.652	1129.9
2778.127	1107.9
2781.598	1087.9
2785.067	1098.9
2788.532	1085.9
2791.995	1075.9
2795.455	1097.9
2798.911	1103.9
2802.365	1096.9
2805.816	1079.9
2809.264	1089.9
2812.709	1093.9
2816.151	1085.9
2819.59	1079.9
2823.026	1074.9
2826.46	1087.9
2829.89	1080.9
2833.318	1086.9
2836.742	1078.9
2840.164	1110.9
2843.583	1101.9
2846.999	1107.9
2850.412	1133.9
2853.822	1140.9
2857.229	1146.9
2860.634	1165.9
2864.035	1190.9
2867.434	1205.9
2870.83	1205.9
2874.223	1235.9
2877.613	1285.9
2881	1274.9
2884.385	1284.9
2887.766	1277.9
2891.145	1278.9
2894.521	1287.9
2897.894	1278.9
2901.264	1266.9
2904.631	1277.9
2907.996	1263.9
2911.358	1284.9
2914.717	1278.9
2918.073	1265.9
2921.426	1301.9
2924.777	1315.9
2928.124	1343.9
2931.469	1368.9
2934.811	1397.9
2938.15	1393.9
2941.487	1412.9
2944.821	1415.9
2948.152	1400.9
2951.48	1407.9
2954.805	1393.9
2958.128	1368.9
2961.447	1369.9
2964.765	1350.9
2968.079	1346.9
2971.39	1376.9
2974.699	1403.9
2978.005	1406.9
2981.308	1442.9
2984.609	1481.9
2987.907	1487.9
2991.202	1507.9
2994.494	1542.9
2997.784	1569.9
3001.07	1599.9
3004.355	1623.9
3007.636	1650.9
3010.915	1672.9
3014.191	1665.9
3017.464	1685.9
3020.734	1709.9
3024.002	1706.9
3027.267	1730.9
3030.53	1729.9
3033.789	1752.9
3037.046	1773.9
3040.301	1768.9
3043.552	1852.9
3046.801	1871.9
3050.048	1923.9
3053.291	1953.9
3056.532	1976.9
3059.771	2066.9
3063.006	2144.9
3066.239	2214.9
3069.469	2226.9
3072.697	2327.9
3075.922	2366.9
3079.144	2437.9
3082.364	2459.9
3085.581	2503.9
3088.795	2584.9
3092.007	2636.9
3095.216	2705.9
3098.423	2716.9
3101.627	2790.9
3104.828	2869.9
3108.026	2941.9
3111.222	2995.9
3114.416	3053.9
3117.607	3131.9
3120.795	3180.9
3123.98	3259.9
3127.163	3342.9
3130.344	3410.9
3133.521	3506.9
3136.696	3564.9
3139.869	3653.9
3143.039	3700.9
3146.206	3762.9
3149.371	3790.9
3152.533	3846.9
3155.693	3843.9
3158.85	3876.9
3162.005	3922.9
3165.157	3901.9
3168.306	3904.9
3171.453	3923.9
3174.597	3928.9
3177.739	3954.9
3180.878	3923.9
3184.014	3975.9
3187.149	3936.9
3190.28	3964.9
3193.409	3967.9
3196.536	3968.9
3199.659	3963.9
3202.781	3941.9
3205.9	3983.9
3209.016	3933.9
3212.13	3942.9
3215.241	3895.9
3218.35	3881.9
3221.456	3821.9
3224.56	3778.9
3227.661	3755.9
3230.76	3720.9
3233.856	3654.9
3236.95	3635.9
3240.041	3609.9
3243.13	3571.9
3246.216	3548.9
3249.3	3546.9
3252.382	3526.9
3255.46	3493.9
3258.537	3490.9
3261.611	3482.9
3264.682	3486.9
3267.751	3474.9
3270.818	3476.9
3273.882	3447.9
3276.943	3420.9
3280.002	3412.9
3283.059	3358.9
3286.113	3356.9
3289.165	3312.9
3292.214	3252.9
3295.261	3192.9
3298.306	3139.9
3301.348	3097.9
3304.387	3026.9
3307.425	3005.9
3310.459	2973.9
3313.492	2927.9
3316.521	2863.9
3319.549	2833.9
3322.574	2803.9
3325.597	2778.9
3328.617	2786.9
3331.635	2749.9
3334.65	2736.9
3337.663	2709.9
3340.674	2695.9
3343.682	2720.9
3346.688	2688.9
3349.691	2673.9
3352.692	2655.9
3355.691	2640.9
3358.687	2639.9
3361.681	2580.9
3364.673	2537.9
3367.662	2520.9
3370.649	2458.9
3373.633	2455.9
3376.615	2412.9
3379.595	2371.9
3382.572	2339.9
3385.547	2327.9
3388.52	2288.9
3391.49	2222.9
3394.458	2200.9
3397.424	2158.9
3400.387	2130.9
3403.348	2111.9
3406.307	2078.9
3409.263	2053.9
3412.217	2041.9
3415.168	2012.9
3418.118	1994.9
3421.065	1962.9
3424.009	1944.9
3426.951	1908.9
3429.891	1860.9
3432.829	1844.9
3435.764	1771.9
3438.697	1743.9
3441.628	1677.9
3444.557	1634.9
3447.483	1587.9
3450.407	1532.9
3453.328	1476.9
3456.247	1435.9
3459.164	1383.9
3462.079	1325.9
3464.991	1272.9
3467.902	1233.9
3470.809	1192.9
3473.715	1142.9
3476.618	1107.9
3479.519	1070.9
3482.418	1016.9
3485.315	989.9
3488.209	929.9
3491.101	927.9
3493.99	877.9
3496.878	854.9
3499.763	817.9
3502.646	784.9
3505.527	742.9
3508.405	695.9
3511.281	650.9
3514.155	616.9
3517.027	595.9
3519.897	528.9
3522.764	511.9
3525.629	467.9
3528.492	418.9
3531.352	375.9
3534.211	338.9
3537.067	307.9
3539.921	270.9
3542.773	248.9
3545.622	217.9
3548.469	190.9
3551.315	161.9
3554.157	123.9
3556.998	102.9
3559.837	76.9
3562.673	63.9
3565.507	26.9
3568.339	27.9
3571.169	-7.1
3573.996	-22.1
3576.822	-46.1
3579.645	-63.1
3582.466	-76.1
3585.285	-98.1
3588.101	-110.1
3590.916	-145.1
3593.728	-156.1
3596.538	-181.1
3599.346	-193.1
3602.152	-208.1
3604.956	-216.1
3607.757	-231.1
3610.556	-243.1
3613.354	-267.1
3616.149	-267.1
3618.942	-286.1
3621.732	-296.1
3624.521	-312.1
3627.307	-322.1
3630.092	-328.1
3632.874	-339.1
3635.654	-354.1
3638.432	-360.1
3641.208	-365.1
3643.982	-371.1
3646.753	-380.1
3649.523	-398.1
3652.29	-411.1
3655.055	-406.1
3657.818	-421.1
3660.579	-428.1
3663.338	-439.1
3666.095	-455.1
3668.849	-462.1
3671.602	-467.1
3674.352	-468.1
3677.101	-478.1
3679.847	-493.1
3682.591	-486.1
3685.333	-497.1
3688.073	-498.1
3690.811	-513.1
3693.547	-511.1
3696.281	-522.1
3699.013	-520.1
3701.742	-528.1
3704.47	-535.1
3707.195	-542.1
3709.919	-541.1
3712.64	-541.1
3715.359	-542.1
3718.076	-548.1
3720.792	-558.1
3723.505	-553.1
3726.216	-560.1
3728.925	-561.1
3731.632	-571.1
3734.336	-575.1
3737.039	-575.1
3739.74	-577.1
3742.439	-579.1
3745.136	-585.1
3747.83	-584.1
3750.523	-577.1
3753.213	-591.1
3755.902	-589.1
3758.589	-588.1
3761.273	-591.1
3763.956	-592.1
3766.636	-594.1
3769.315	-602.1
3771.991	-595.1
3774.665	-601.1
3777.338	-596.1
3780.008	-596.1
3782.677	-601.1
3785.343	-609.1
3788.007	-607.1
3790.67	-609.1
3793.33	-606.1
3795.989	-615.1
3798.645	-607.1
3801.299	-615.1
3803.952	-617.1
3806.602	-618.1
3809.251	-621.1
3811.897	-613.1
3814.542	-610.1
3817.184	-620.1
3819.825	-616.1
3822.463	-612.1
3825.1	-623.1
3827.735	-624.1
3830.367	-622.1
3832.998	-626.1
3835.627	-627.1
3838.253	-627.1
3840.878	-625.1
3843.501	-629.1
3846.122	-624.1
3848.741	-628.1
3851.358	-627.1
3853.973	-631.1
3856.586	-629.1
3859.197	-630.1
3861.806	-628.1
3864.414	-626.1
3867.019	-628.1
3869.622	-630.1
3872.224	-628.1
3874.823	-612.1
3877.421	-596.1
3880.016	-579.1
3882.61	-549.1
3885.202	-552.1
3887.792	-567.1
3890.38	-598.1
3892.966	-617.1
3895.55	-623.1
3898.132	-634.1
3900.713	-637.1
3903.291	-643.1
3905.868	-642.1
3908.442	-646.1
3911.015	-638.1
3913.586	-645.1
3916.155	-644.1
3918.722	-639.1
3921.287	-638.1
3923.85	-645.1
3926.411	-644.1
3928.971	-642.1
3931.528	-641.1
3934.084	-635.1
3936.638	-644.1
3939.19	-647.1
3941.74	-648.1
3944.288	-651.1
3946.834	-654.1
3949.378	-654.1
3951.921	-649.1
3954.462	-648.1
3957	-644.1
3959.537	-641.1
3962.072	-639.1
3964.606	-637.1
3967.137	-646.1
3969.667	-644.1
3972.194	-633.1
3974.72	-638.1
3977.244	-631.1
3979.766	-634.1
3982.286	-635.1
3984.805	-626.1
3987.321	-630.1
3989.836	-634.1
3992.349	-631.1
3994.86	-628.1
3997.369	-642.1
3999.877	-630.1
4002.382	-632.1
4004.886	-632.1
4007.388	-635.1
4009.888	-627.1
4012.386	-632.1
4014.883	-630.1
4017.377	-632.1
4019.87	-631.1
4022.361	-629.1
4024.85	-633.1
4027.338	-638.1
4029.823	-629.1
4032.307	-633.1
4034.789	-633.1
4037.269	-643.1
4039.747	-639.1
4042.224	-629.1
4044.699	-636.1
4047.172	-638.1
4049.643	-640.1
4052.112	-632.1
4054.58	-633.1
4057.046	-645.1
4059.51	-637.1
4061.972	-642.1
4064.432	-640.1
4066.891	-636.1
4069.348	-637.1
4071.803	-636.1
4074.256	-633.1
4076.708	-635.1
4079.158	-636.1
4081.606	-636.1
4084.052	-631.1
4086.497	-633.1
4088.939	-630.1
4091.38	-630.1
4093.819	-633.1
4096.257	-664.1
4098.693	-671.1
4101.127	-670.1
4103.559	-672.1
4105.989	-399.1
4108.418	-378.1
4110.845	-360.1
4113.27	-329.1
4115.694	-294.1
4118.115	-248.1
4120.535	-634.1
4122.954	-638.1
4125.37	-636.1
4127.785	-636.1
4130.198	-639.1
4132.609	-633.1
4135.019	-674.1
4137.427	-671.1
4139.833	-670.1
4142.237	-665.1
