Data from 1000000CFU3_B_RamanShift_1.txt Node
Date: Tue Jan 31 14:43:12 IST 2017
User: aro
Spectrometer: QEPB0276
Trigger mode: 0
Integration Time (sec): 5.000000E0
Scans to average: 1
Electric dark correction enabled: true
Nonlinearity correction enabled: false
Boxcar width: 0
XAxis mode: Raman Shifts
Number of Pixels in Spectrum: 1044
>>>>>Begin Spectral Data<<<<<
160.701	-36.88
166.742	4.12
172.777	96.12
178.805	386.12
184.826	1078.12
190.841	2206.12
196.849	3437.12
202.85	4264.12
208.845	4434.12
214.833	4292.12
220.815	4138.12
226.789	3987.12
232.758	3910.12
238.719	3811.12
244.674	3632.12
250.623	3523.12
256.565	3341.12
262.5	3180.12
268.429	3035.12
274.351	2897.12
280.267	2825.12
286.176	2716.12
292.079	2624.12
297.975	2526.12
303.865	2457.12
309.748	2402.12
315.625	2346.12
321.495	2302.12
327.359	2264.12
333.217	2235.12
339.068	2235.12
344.912	2228.12
350.751	2211.12
356.583	2196.12
362.408	2208.12
368.227	2195.12
374.04	2201.12
379.847	2223.12
385.647	2249.12
391.44	2248.12
397.228	2255.12
403.009	2260.12
408.784	2269.12
414.553	2273.12
420.315	2274.12
426.071	2254.12
431.821	2302.12
437.565	2277.12
443.302	2270.12
449.033	2263.12
454.758	2256.12
460.477	2224.12
466.189	2227.12
471.896	2230.12
477.596	2206.12
483.29	2203.12
488.978	2197.12
494.66	2186.12
500.335	2155.12
506.005	2119.12
511.668	2079.12
517.325	2046.12
522.977	2031.12
528.622	2005.12
534.261	1968.12
539.894	1973.12
545.521	1943.12
551.141	1929.12
556.756	1918.12
562.365	1905.12
567.968	1897.12
573.565	1887.12
579.155	1867.12
584.74	1870.12
590.319	1862.12
595.892	1855.12
601.459	1842.12
607.02	1811.12
612.575	1806.12
618.124	1797.12
623.667	1767.12
629.204	1762.12
634.735	1765.12
640.261	1735.12
645.781	1719.12
651.294	1707.12
656.802	1714.12
662.304	1696.12
667.8	1704.12
673.29	1685.12
678.775	1674.12
684.254	1673.12
689.726	1650.12
695.193	1648.12
700.655	1658.12
706.11	1644.12
711.56	1635.12
717.004	1623.12
722.442	1628.12
727.874	1606.12
733.301	1599.12
738.722	1575.12
744.137	1575.12
749.547	1574.12
754.951	1568.12
760.349	1569.12
765.741	1558.12
771.128	1567.12
776.509	1568.12
781.885	1582.12
787.254	1581.12
792.618	1560.12
797.977	1555.12
803.33	1558.12
808.677	1545.12
814.019	1529.12
819.355	1514.12
824.686	1505.12
830.011	1485.12
835.33	1474.12
840.644	1465.12
845.952	1448.12
851.255	1462.12
856.552	1453.12
861.844	1437.12
867.13	1442.12
872.41	1446.12
877.686	1442.12
882.955	1419.12
888.219	1404.12
893.478	1378.12
898.731	1352.12
903.979	1330.12
909.221	1323.12
914.458	1295.12
919.69	1293.12
924.916	1290.12
930.136	1282.12
935.351	1297.12
940.561	1293.12
945.766	1289.12
950.965	1283.12
956.158	1285.12
961.347	1275.12
966.529	1242.12
971.707	1226.12
976.879	1229.12
982.046	1221.12
987.208	1200.12
992.364	1202.12
997.515	1196.12
1002.66	1213.12
1007.801	1212.12
1012.936	1226.12
1018.066	1221.12
1023.19	1247.12
1028.309	1253.12
1033.423	1250.12
1038.532	1241.12
1043.636	1229.12
1048.734	1232.12
1053.827	1216.12
1058.915	1194.12
1063.998	1206.12
1069.075	1197.12
1074.147	1190.12
1079.214	1194.12
1084.276	1211.12
1089.333	1213.12
1094.385	1219.12
1099.431	1233.12
1104.472	1238.12
1109.509	1220.12
1114.54	1217.12
1119.565	1212.12
1124.586	1203.12
1129.602	1180.12
1134.613	1170.12
1139.618	1176.12
1144.619	1174.12
1149.614	1186.12
1154.604	1174.12
1159.589	1183.12
1164.57	1191.12
1169.545	1175.12
1174.515	1206.12
1179.48	1193.12
1184.44	1185.12
1189.395	1186.12
1194.345	1181.12
1199.29	1192.12
1204.23	1171.12
1209.165	1177.12
1214.095	1179.12
1219.021	1182.12
1223.941	1198.12
1228.856	1199.12
1233.766	1213.12
1238.672	1228.12
1243.572	1211.12
1248.467	1209.12
1253.358	1214.12
1258.244	1198.12
1263.124	1179.12
1268	1174.12
1272.871	1147.12
1277.737	1133.12
1282.599	1123.12
1287.455	1126.12
1292.306	1138.12
1297.153	1143.12
1301.995	1159.12
1306.832	1149.12
1311.664	1172.12
1316.491	1169.12
1321.314	1183.12
1326.132	1169.12
1330.945	1162.12
1335.753	1152.12
1340.556	1133.12
1345.354	1122.12
1350.148	1117.12
1354.937	1108.12
1359.722	1093.12
1364.501	1073.12
1369.276	1073.12
1374.046	1058.12
1378.811	1064.12
1383.572	1061.12
1388.327	1060.12
1393.079	1055.12
1397.825	1047.12
1402.567	1050.12
1407.304	1042.12
1412.036	1029.12
1416.764	1029.12
1421.487	1036.12
1426.205	1020.12
1430.919	1051.12
1435.628	1039.12
1440.333	1060.12
1445.032	1070.12
1449.727	1081.12
1454.418	1079.12
1459.104	1099.12
1463.785	1094.12
1468.462	1072.12
1473.134	1066.12
1477.802	1064.12
1482.465	1068.12
1487.123	1045.12
1491.777	1063.12
1496.426	1057.12
1501.071	1058.12
1505.711	1079.12
1510.347	1076.12
1514.978	1093.12
1519.604	1093.12
1524.226	1107.12
1528.844	1114.12
1533.457	1127.12
1538.065	1106.12
1542.669	1112.12
1547.269	1101.12
1551.864	1108.12
1556.454	1102.12
1561.041	1142.12
1565.622	1118.12
1570.199	1139.12
1574.772	1146.12
1579.34	1178.12
1583.904	1206.12
1588.464	1211.12
1593.019	1233.12
1597.569	1255.12
1602.115	1269.12
1606.657	1275.12
1611.195	1274.12
1615.728	1296.12
1620.256	1316.12
1624.78	1334.12
1629.3	1345.12
1633.816	1358.12
1638.327	1381.12
1642.834	1398.12
1647.336	1386.12
1651.834	1399.12
1656.328	1412.12
1660.817	1398.12
1665.302	1383.12
1669.783	1365.12
1674.259	1326.12
1678.732	1306.12
1683.199	1253.12
1687.663	1231.12
1692.122	1164.12
1696.577	1139.12
1701.028	1087.12
1705.474	1042.12
1709.917	1007.12
1714.355	981.12
1718.788	966.12
1723.218	957.12
1727.643	930.12
1732.064	916.12
1736.481	907.12
1740.893	874.12
1745.301	865.12
1749.705	822.12
1754.105	817.12
1758.501	810.12
1762.893	784.12
1767.28	782.12
1771.663	771.12
1776.042	763.12
1780.417	770.12
1784.787	769.12
1789.154	780.12
1793.516	777.12
1797.874	775.12
1802.228	776.12
1806.578	763.12
1810.924	741.12
1815.266	744.12
1819.603	717.12
1823.937	716.12
1828.266	713.12
1832.591	718.12
1836.913	693.12
1841.23	690.12
1845.543	699.12
1849.852	690.12
1854.156	691.12
1858.457	703.12
1862.754	706.12
1867.047	702.12
1871.335	715.12
1875.62	717.12
1879.9	732.12
1884.177	741.12
1888.449	716.12
1892.718	712.12
1896.982	721.12
1901.243	713.12
1905.499	711.12
1909.752	714.12
1914	712.12
1918.245	705.12
1922.485	717.12
1926.722	730.12
1930.954	717.12
1935.183	717.12
1939.408	724.12
1943.628	718.12
1947.845	721.12
1952.058	714.12
1956.267	725.12
1960.472	720.12
1964.673	717.12
1968.87	698.12
1973.063	693.12
1977.252	678.12
1981.438	684.12
1985.619	680.12
1989.797	674.12
1993.971	660.12
1998.14	683.12
2002.306	682.12
2006.469	682.12
2010.627	697.12
2014.781	697.12
2018.932	691.12
2023.078	699.12
2027.221	699.12
2031.36	688.12
2035.495	689.12
2039.627	684.12
2043.754	671.12
2047.878	686.12
2051.998	674.12
2056.114	678.12
2060.226	674.12
2064.334	673.12
2068.439	688.12
2072.54	692.12
2076.637	687.12
2080.73	697.12
2084.82	689.12
2088.906	697.12
2092.988	694.12
2097.066	700.12
2101.14	694.12
2105.211	682.12
2109.278	688.12
2113.342	679.12
2117.401	677.12
2121.457	672.12
2125.509	655.12
2129.558	659.12
2133.602	665.12
2137.643	651.12
2141.681	648.12
2145.714	651.12
2149.744	642.12
2153.77	634.12
2157.793	642.12
2161.812	637.12
2165.827	620.12
2169.838	611.12
2173.846	599.12
2177.851	603.12
2181.851	586.12
2185.848	584.12
2189.841	575.12
2193.831	578.12
2197.817	576.12
2201.799	574.12
2205.778	557.12
2209.753	554.12
2213.725	558.12
2217.693	568.12
2221.657	553.12
2225.618	555.12
2229.575	561.12
2233.529	553.12
2237.479	558.12
2241.425	550.12
2245.368	548.12
2249.307	543.12
2253.243	535.12
2257.175	511.12
2261.104	520.12
2265.029	512.12
2268.95	489.12
2272.868	496.12
2276.783	488.12
2280.694	485.12
2284.601	469.12
2288.505	471.12
2292.405	463.12
2296.302	464.12
2300.195	450.12
2304.085	451.12
2307.971	446.12
2311.854	438.12
2315.734	432.12
2319.609	430.12
2323.482	417.12
2327.351	407.12
2331.216	422.12
2335.078	403.12
2338.937	412.12
2342.792	402.12
2346.643	401.12
2350.492	396.12
2354.336	390.12
2358.178	396.12
2362.015	399.12
2365.85	405.12
2369.681	403.12
2373.508	404.12
2377.333	400.12
2381.153	406.12
2384.971	396.12
2388.785	401.12
2392.595	398.12
2396.402	386.12
2400.206	389.12
2404.007	396.12
2407.804	385.12
2411.597	379.12
2415.388	387.12
2419.174	376.12
2422.958	381.12
2426.738	381.12
2430.515	372.12
2434.289	371.12
2438.059	375.12
2441.825	374.12
2445.589	372.12
2449.349	378.12
2453.106	366.12
2456.859	364.12
2460.61	356.12
2464.356	356.12
2468.1	345.12
2471.84	355.12
2475.577	346.12
2479.311	347.12
2483.041	348.12
2486.768	354.12
2490.492	352.12
2494.213	350.12
2497.93	351.12
2501.644	353.12
2505.355	348.12
2509.062	346.12
2512.766	356.12
2516.467	348.12
2520.165	352.12
2523.859	348.12
2527.551	350.12
2531.239	333.12
2534.923	339.12
2538.605	334.12
2542.283	325.12
2545.958	334.12
2549.63	329.12
2553.299	327.12
2556.964	321.12
2560.626	318.12
2564.285	323.12
2567.941	322.12
2571.594	320.12
2575.243	313.12
2578.89	316.12
2582.533	307.12
2586.173	310.12
2589.809	311.12
2593.443	300.12
2597.073	298.12
2600.701	298.12
2604.325	305.12
2607.946	297.12
2611.564	287.12
2615.178	310.12
2618.79	295.12
2622.398	286.12
2626.004	283.12
2629.606	291.12
2633.205	292.12
2636.801	280.12
2640.394	275.12
2643.983	283.12
2647.57	275.12
2651.153	271.12
2654.734	267.12
2658.311	270.12
2661.885	269.12
2665.456	266.12
2669.025	261.12
2672.589	260.12
2676.151	253.12
2679.71	244.12
2683.266	259.12
2686.819	254.12
2690.368	244.12
2693.915	242.12
2697.458	256.12
2700.999	243.12
2704.536	248.12
2708.071	234.12
2711.602	234.12
2715.13	241.12
2718.656	230.12
2722.178	232.12
2725.697	231.12
2729.214	230.12
2732.727	237.12
2736.237	235.12
2739.744	249.12
2743.249	245.12
2746.75	245.12
2750.248	235.12
2753.743	231.12
2757.236	234.12
2760.725	230.12
2764.211	234.12
2767.695	231.12
2771.175	223.12
2774.652	225.12
2778.127	226.12
2781.598	222.12
2785.067	226.12
2788.532	226.12
2791.995	222.12
2795.455	222.12
2798.911	219.12
2802.365	220.12
2805.816	233.12
2809.264	236.12
2812.709	228.12
2816.151	232.12
2819.59	241.12
2823.026	233.12
2826.46	235.12
2829.89	239.12
2833.318	233.12
2836.742	237.12
2840.164	234.12
2843.583	233.12
2846.999	240.12
2850.412	240.12
2853.822	245.12
2857.229	244.12
2860.634	256.12
2864.035	258.12
2867.434	256.12
2870.83	260.12
2874.223	258.12
2877.613	262.12
2881	263.12
2884.385	264.12
2887.766	273.12
2891.145	261.12
2894.521	261.12
2897.894	260.12
2901.264	261.12
2904.631	266.12
2907.996	277.12
2911.358	271.12
2914.717	271.12
2918.073	281.12
2921.426	278.12
2924.777	279.12
2928.124	287.12
2931.469	292.12
2934.811	290.12
2938.15	306.12
2941.487	310.12
2944.821	326.12
2948.152	319.12
2951.48	329.12
2954.805	327.12
2958.128	336.12
2961.447	332.12
2964.765	341.12
2968.079	346.12
2971.39	361.12
2974.699	363.12
2978.005	376.12
2981.308	381.12
2984.609	396.12
2987.907	390.12
2991.202	414.12
2994.494	424.12
2997.784	422.12
3001.07	429.12
3004.355	449.12
3007.636	452.12
3010.915	476.12
3014.191	475.12
3017.464	489.12
3020.734	496.12
3024.002	503.12
3027.267	523.12
3030.53	522.12
3033.789	535.12
3037.046	531.12
3040.301	542.12
3043.552	563.12
3046.801	573.12
3050.048	599.12
3053.291	603.12
3056.532	630.12
3059.771	647.12
3063.006	666.12
3066.239	689.12
3069.469	699.12
3072.697	724.12
3075.922	739.12
3079.144	764.12
3082.364	778.12
3085.581	804.12
3088.795	817.12
3092.007	844.12
3095.216	863.12
3098.423	883.12
3101.627	897.12
3104.828	914.12
3108.026	929.12
3111.222	962.12
3114.416	967.12
3117.607	1006.12
3120.795	1028.12
3123.98	1041.12
3127.163	1067.12
3130.344	1079.12
3133.521	1113.12
3136.696	1153.12
3139.869	1157.12
3143.039	1184.12
3146.206	1193.12
3149.371	1222.12
3152.533	1246.12
3155.693	1253.12
3158.85	1256.12
3162.005	1277.12
3165.157	1286.12
3168.306	1273.12
3171.453	1289.12
3174.597	1287.12
3177.739	1287.12
3180.878	1289.12
3184.014	1305.12
3187.149	1306.12
3190.28	1304.12
3193.409	1304.12
3196.536	1321.12
3199.659	1303.12
3202.781	1315.12
3205.9	1325.12
3209.016	1325.12
3212.13	1311.12
3215.241	1331.12
3218.35	1326.12
3221.456	1331.12
3224.56	1299.12
3227.661	1314.12
3230.76	1284.12
3233.856	1270.12
3236.95	1271.12
3240.041	1249.12
3243.13	1231.12
3246.216	1209.12
3249.3	1208.12
3252.382	1207.12
3255.46	1188.12
3258.537	1190.12
3261.611	1184.12
3264.682	1183.12
3267.751	1180.12
3270.818	1185.12
3273.882	1163.12
3276.943	1158.12
3280.002	1143.12
3283.059	1131.12
3286.113	1107.12
3289.165	1104.12
3292.214	1095.12
3295.261	1087.12
3298.306	1074.12
3301.348	1050.12
3304.387	1039.12
3307.425	1013.12
3310.459	1005.12
3313.492	973.12
3316.521	967.12
3319.549	966.12
3322.574	951.12
3325.597	956.12
3328.617	945.12
3331.635	944.12
3334.65	934.12
3337.663	920.12
3340.674	925.12
3343.682	914.12
3346.688	922.12
3349.691	909.12
3352.692	908.12
3355.691	903.12
3358.687	887.12
3361.681	901.12
3364.673	886.12
3367.662	889.12
3370.649	860.12
3373.633	847.12
3376.615	835.12
3379.595	836.12
3382.572	816.12
3385.547	812.12
3388.52	801.12
3391.49	791.12
3394.458	768.12
3397.424	765.12
3400.387	749.12
3403.348	752.12
3406.307	743.12
3409.263	726.12
3412.217	722.12
3415.168	712.12
3418.118	702.12
3421.065	705.12
3424.009	687.12
3426.951	668.12
3429.891	679.12
3432.829	659.12
3435.764	645.12
3438.697	632.12
3441.628	628.12
3444.557	599.12
3447.483	587.12
3450.407	567.12
3453.328	557.12
3456.247	544.12
3459.164	522.12
3462.079	519.12
3464.991	499.12
3467.902	488.12
3470.809	469.12
3473.715	458.12
3476.618	441.12
3479.519	422.12
3482.418	412.12
3485.315	407.12
3488.209	397.12
3491.101	375.12
3493.99	378.12
3496.878	364.12
3499.763	353.12
3502.646	353.12
3505.527	325.12
3508.405	317.12
3511.281	299.12
3514.155	284.12
3517.027	280.12
3519.897	271.12
3522.764	257.12
3525.629	241.12
3528.492	241.12
3531.352	220.12
3534.211	203.12
3537.067	195.12
3539.921	183.12
3542.773	172.12
3545.622	165.12
3548.469	155.12
3551.315	137.12
3554.157	132.12
3556.998	132.12
3559.837	131.12
3562.673	115.12
3565.507	110.12
3568.339	97.12
3571.169	86.12
3573.996	87.12
3576.822	81.12
3579.645	71.12
3582.466	64.12
3585.285	64.12
3588.101	52.12
3590.916	51.12
3593.728	51.12
3596.538	42.12
3599.346	41.12
3602.152	33.12
3604.956	23.12
3607.757	18.12
3610.556	13.12
3613.354	10.12
3616.149	10.12
3618.942	6.12
3621.732	-3.88
3624.521	4.12
3627.307	-2.88
3630.092	-7.88
3632.874	-8.88
3635.654	-20.88
3638.432	-23.88
3641.208	-19.88
3643.982	-26.88
3646.753	-30.88
3649.523	-29.88
3652.29	-33.88
3655.055	-33.88
3657.818	-37.88
3660.579	-39.88
3663.338	-45.88
3666.095	-53.88
3668.849	-46.88
3671.602	-55.88
3674.352	-54.88
3677.101	-59.88
3679.847	-53.88
3682.591	-60.88
3685.333	-59.88
3688.073	-58.88
3690.811	-65.88
3693.547	-66.88
3696.281	-64.88
3699.013	-71.88
3701.742	-70.88
3704.47	-79.88
3707.195	-71.88
3709.919	-70.88
3712.64	-77.88
3715.359	-77.88
3718.076	-78.88
3720.792	-80.88
3723.505	-82.88
3726.216	-77.88
3728.925	-83.88
3731.632	-86.88
3734.336	-85.88
3737.039	-88.88
3739.74	-88.88
3742.439	-84.88
3745.136	-87.88
3747.83	-91.88
3750.523	-88.88
3753.213	-86.88
3755.902	-88.88
3758.589	-88.88
3761.273	-88.88
3763.956	-87.88
3766.636	-91.88
3769.315	-91.88
3771.991	-91.88
3774.665	-91.88
3777.338	-91.88
3780.008	-93.88
3782.677	-93.88
3785.343	-97.88
3788.007	-93.88
3790.67	-96.88
3793.33	-95.88
3795.989	-99.88
3798.645	-91.88
3801.299	-89.88
3803.952	-100.88
3806.602	-98.88
3809.251	-96.88
3811.897	-99.88
3814.542	-105.88
3817.184	-101.88
3819.825	-99.88
3822.463	-97.88
3825.1	-96.88
3827.735	-100.88
3830.367	-96.88
3832.998	-103.88
3835.627	-101.88
3838.253	-99.88
3840.878	-101.88
3843.501	-102.88
3846.122	-104.88
3848.741	-100.88
3851.358	-103.88
3853.973	-102.88
3856.586	-94.88
3859.197	-100.88
3861.806	-97.88
3864.414	-104.88
3867.019	-101.88
3869.622	-102.88
3872.224	-102.88
3874.823	-104.88
3877.421	-103.88
3880.016	-95.88
3882.61	-95.88
3885.202	-93.88
3887.792	-91.88
3890.38	-95.88
3892.966	-98.88
3895.55	-105.88
3898.132	-105.88
3900.713	-106.88
3903.291	-107.88
3905.868	-104.88
3908.442	-103.88
3911.015	-102.88
3913.586	-104.88
3916.155	-104.88
3918.722	-104.88
3921.287	-101.88
3923.85	-106.88
3926.411	-109.88
3928.971	-103.88
3931.528	-113.88
3934.084	-107.88
3936.638	-105.88
3939.19	-106.88
3941.74	-107.88
3944.288	-108.88
3946.834	-100.88
3949.378	-105.88
3951.921	-105.88
3954.462	-106.88
3957	-110.88
3959.537	-110.88
3962.072	-104.88
3964.606	-109.88
3967.137	-105.88
3969.667	-103.88
3972.194	-106.88
3974.72	-104.88
3977.244	-100.88
3979.766	-104.88
3982.286	-98.88
3984.805	-104.88
3987.321	-107.88
3989.836	-108.88
3992.349	-110.88
3994.86	-103.88
3997.369	-105.88
3999.877	-105.88
4002.382	-105.88
4004.886	-100.88
4007.388	-101.88
4009.888	-105.88
4012.386	-104.88
4014.883	-105.88
4017.377	-105.88
4019.87	-107.88
4022.361	-105.88
4024.85	-107.88
4027.338	-107.88
4029.823	-105.88
4032.307	-103.88
4034.789	-101.88
4037.269	-101.88
4039.747	-100.88
4042.224	-105.88
4044.699	-108.88
4047.172	-109.88
4049.643	-104.88
4052.112	-108.88
4054.58	-111.88
4057.046	-109.88
4059.51	-105.88
4061.972	-111.88
4064.432	-107.88
4066.891	-110.88
4069.348	-104.88
4071.803	-108.88
4074.256	-109.88
4076.708	-107.88
4079.158	-112.88
4081.606	-111.88
4084.052	-106.88
4086.497	-108.88
4088.939	-103.88
4091.38	-110.88
4093.819	-107.88
4096.257	-111.88
4098.693	-109.88
4101.127	-109.88
4103.559	-110.88
4105.989	-70.88
4108.418	-70.88
4110.845	-68.88
4113.27	-64.88
4115.694	-55.88
4118.115	-43.88
4120.535	-104.88
4122.954	-111.88
4125.37	-106.88
4127.785	-107.88
4130.198	-106.88
4132.609	-104.88
4135.019	-113.88
4137.427	-110.88
4139.833	-111.88
4142.237	-112.88
