Data from Water_10000CFU_RamanShift_11-16-18-883.txt Node
Date: Sun Dec 18 11:16:18 IST 2016
User: aro
Spectrometer: QEPB0276
Trigger mode: 0
Integration Time (sec): 5.000000E0
Scans to average: 1
Electric dark correction enabled: true
Nonlinearity correction enabled: false
Boxcar width: 0
XAxis mode: Raman Shifts
Number of Pixels in Spectrum: 1044
>>>>>Begin Spectral Data<<<<<
160.701	2.12
166.742	22.12
172.777	61.12
178.805	184.12
184.826	554.12
190.841	1339.12
196.849	2447.12
202.85	3494.12
208.845	3997.12
214.833	3971.12
220.815	3837.12
226.789	3720.12
232.758	3595.12
238.719	3528.12
244.674	3392.12
250.623	3275.12
256.565	3143.12
262.5	2978.12
268.429	2841.12
274.351	2720.12
280.267	2608.12
286.176	2528.12
292.079	2437.12
297.975	2335.12
303.865	2272.12
309.748	2205.12
315.625	2153.12
321.495	2101.12
327.359	2053.12
333.217	2026.12
339.068	2001.12
344.912	1990.12
350.751	1971.12
356.583	1968.12
362.408	1967.12
368.227	1946.12
374.04	1954.12
379.847	1966.12
385.647	1976.12
391.44	1963.12
397.228	1993.12
403.009	2011.12
408.784	2003.12
414.553	2011.12
420.315	2011.12
426.071	2030.12
431.821	1993.12
437.565	2027.12
443.302	2013.12
449.033	2007.12
454.758	2008.12
460.477	2002.12
466.189	2000.12
471.896	1982.12
477.596	1965.12
483.29	1985.12
488.978	1974.12
494.66	1966.12
500.335	1950.12
506.005	1911.12
511.668	1869.12
517.325	1839.12
522.977	1819.12
528.622	1783.12
534.261	1766.12
539.894	1757.12
545.521	1734.12
551.141	1704.12
556.756	1707.12
562.365	1712.12
567.968	1687.12
573.565	1683.12
579.155	1661.12
584.74	1666.12
590.319	1661.12
595.892	1645.12
601.459	1634.12
607.02	1605.12
612.575	1608.12
618.124	1595.12
623.667	1573.12
629.204	1579.12
634.735	1556.12
640.261	1546.12
645.781	1524.12
651.294	1534.12
656.802	1509.12
662.304	1501.12
667.8	1508.12
673.29	1509.12
678.775	1494.12
684.254	1482.12
689.726	1476.12
695.193	1468.12
700.655	1469.12
706.11	1453.12
711.56	1441.12
717.004	1445.12
722.442	1430.12
727.874	1421.12
733.301	1423.12
738.722	1412.12
744.137	1404.12
749.547	1393.12
754.951	1393.12
760.349	1394.12
765.741	1382.12
771.128	1388.12
776.509	1374.12
781.885	1389.12
787.254	1397.12
792.618	1371.12
797.977	1380.12
803.33	1361.12
808.677	1354.12
814.019	1336.12
819.355	1322.12
824.686	1324.12
830.011	1305.12
835.33	1298.12
840.644	1297.12
845.952	1291.12
851.255	1275.12
856.552	1281.12
861.844	1276.12
867.13	1254.12
872.41	1249.12
877.686	1258.12
882.955	1241.12
888.219	1207.12
893.478	1198.12
898.731	1188.12
903.979	1173.12
909.221	1149.12
914.458	1154.12
919.69	1136.12
924.916	1143.12
930.136	1138.12
935.351	1150.12
940.561	1121.12
945.766	1135.12
950.965	1149.12
956.158	1127.12
961.347	1111.12
966.529	1081.12
971.707	1084.12
976.879	1074.12
982.046	1045.12
987.208	1051.12
992.364	1044.12
997.515	1043.12
1002.66	1062.12
1007.801	1059.12
1012.936	1078.12
1018.066	1076.12
1023.19	1085.12
1028.309	1088.12
1033.423	1104.12
1038.532	1087.12
1043.636	1073.12
1048.734	1076.12
1053.827	1055.12
1058.915	1050.12
1063.998	1043.12
1069.075	1036.12
1074.147	1045.12
1079.214	1032.12
1084.276	1060.12
1089.333	1055.12
1094.385	1066.12
1099.431	1066.12
1104.472	1077.12
1109.509	1072.12
1114.54	1064.12
1119.565	1049.12
1124.586	1021.12
1129.602	1039.12
1134.613	1017.12
1139.618	1015.12
1144.619	1011.12
1149.614	1010.12
1154.604	1032.12
1159.589	1023.12
1164.57	1028.12
1169.545	1042.12
1174.515	1045.12
1179.48	1048.12
1184.44	1041.12
1189.395	1025.12
1194.345	1020.12
1199.29	1023.12
1204.23	1025.12
1209.165	1021.12
1214.095	1013.12
1219.021	1020.12
1223.941	1052.12
1228.856	1043.12
1233.766	1061.12
1238.672	1049.12
1243.572	1059.12
1248.467	1049.12
1253.358	1043.12
1258.244	1040.12
1263.124	1006.12
1268	1013.12
1272.871	988.12
1277.737	980.12
1282.599	974.12
1287.455	969.12
1292.306	986.12
1297.153	988.12
1301.995	979.12
1306.832	990.12
1311.664	997.12
1316.491	1011.12
1321.314	1011.12
1326.132	1009.12
1330.945	989.12
1335.753	985.12
1340.556	977.12
1345.354	960.12
1350.148	960.12
1354.937	943.12
1359.722	937.12
1364.501	943.12
1369.276	928.12
1374.046	926.12
1378.811	922.12
1383.572	923.12
1388.327	919.12
1393.079	923.12
1397.825	913.12
1402.567	904.12
1407.304	886.12
1412.036	888.12
1416.764	893.12
1421.487	891.12
1426.205	883.12
1430.919	902.12
1435.628	900.12
1440.333	906.12
1445.032	921.12
1449.727	926.12
1454.418	939.12
1459.104	932.12
1463.785	926.12
1468.462	922.12
1473.134	915.12
1477.802	911.12
1482.465	910.12
1487.123	894.12
1491.777	905.12
1496.426	918.12
1501.071	916.12
1505.711	922.12
1510.347	938.12
1514.978	935.12
1519.604	947.12
1524.226	962.12
1528.844	974.12
1533.457	974.12
1538.065	981.12
1542.669	959.12
1547.269	959.12
1551.864	962.12
1556.454	958.12
1561.041	970.12
1565.622	971.12
1570.199	989.12
1574.772	994.12
1579.34	1018.12
1583.904	1023.12
1588.464	1053.12
1593.019	1057.12
1597.569	1077.12
1602.115	1081.12
1606.657	1089.12
1611.195	1105.12
1615.728	1102.12
1620.256	1118.12
1624.78	1130.12
1629.3	1141.12
1633.816	1174.12
1638.327	1180.12
1642.834	1190.12
1647.336	1210.12
1651.834	1222.12
1656.328	1218.12
1660.817	1207.12
1665.302	1216.12
1669.783	1197.12
1674.259	1176.12
1678.732	1134.12
1683.199	1107.12
1687.663	1072.12
1692.122	1041.12
1696.577	1007.12
1701.028	962.12
1705.474	950.12
1709.917	910.12
1714.355	894.12
1718.788	874.12
1723.218	859.12
1727.643	836.12
1732.064	830.12
1736.481	792.12
1740.893	788.12
1745.301	758.12
1749.705	748.12
1754.105	724.12
1758.501	706.12
1762.893	689.12
1767.28	680.12
1771.663	671.12
1776.042	664.12
1780.417	664.12
1784.787	667.12
1789.154	671.12
1793.516	683.12
1797.874	681.12
1802.228	678.12
1806.578	681.12
1810.924	670.12
1815.266	641.12
1819.603	651.12
1823.937	651.12
1828.266	621.12
1832.591	625.12
1836.913	623.12
1841.23	611.12
1845.543	608.12
1849.852	605.12
1854.156	606.12
1858.457	604.12
1862.754	619.12
1867.047	627.12
1871.335	612.12
1875.62	624.12
1879.9	628.12
1884.177	624.12
1888.449	627.12
1892.718	624.12
1896.982	631.12
1901.243	619.12
1905.499	624.12
1909.752	630.12
1914	624.12
1918.245	619.12
1922.485	604.12
1926.722	618.12
1930.954	625.12
1935.183	635.12
1939.408	644.12
1943.628	639.12
1947.845	643.12
1952.058	632.12
1956.267	639.12
1960.472	638.12
1964.673	626.12
1968.87	621.12
1973.063	610.12
1977.252	610.12
1981.438	604.12
1985.619	598.12
1989.797	596.12
1993.971	584.12
1998.14	581.12
2002.306	604.12
2006.469	599.12
2010.627	604.12
2014.781	597.12
2018.932	597.12
2023.078	605.12
2027.221	601.12
2031.36	597.12
2035.495	599.12
2039.627	589.12
2043.754	577.12
2047.878	587.12
2051.998	588.12
2056.114	589.12
2060.226	585.12
2064.334	589.12
2068.439	592.12
2072.54	602.12
2076.637	602.12
2080.73	605.12
2084.82	602.12
2088.906	599.12
2092.988	613.12
2097.066	604.12
2101.14	601.12
2105.211	600.12
2109.278	611.12
2113.342	589.12
2117.401	598.12
2121.457	593.12
2125.509	596.12
2129.558	593.12
2133.602	586.12
2137.643	576.12
2141.681	569.12
2145.714	576.12
2149.744	581.12
2153.77	569.12
2157.793	561.12
2161.812	546.12
2165.827	546.12
2169.838	547.12
2173.846	528.12
2177.851	524.12
2181.851	533.12
2185.848	526.12
2189.841	528.12
2193.831	509.12
2197.817	512.12
2201.799	502.12
2205.778	500.12
2209.753	501.12
2213.725	493.12
2217.693	477.12
2221.657	502.12
2225.618	494.12
2229.575	494.12
2233.529	492.12
2237.479	486.12
2241.425	480.12
2245.368	474.12
2249.307	479.12
2253.243	468.12
2257.175	455.12
2261.104	460.12
2265.029	451.12
2268.95	445.12
2272.868	437.12
2276.783	436.12
2280.694	433.12
2284.601	430.12
2288.505	418.12
2292.405	411.12
2296.302	414.12
2300.195	416.12
2304.085	396.12
2307.971	394.12
2311.854	386.12
2315.734	392.12
2319.609	367.12
2323.482	374.12
2327.351	372.12
2331.216	367.12
2335.078	362.12
2338.937	364.12
2342.792	365.12
2346.643	358.12
2350.492	351.12
2354.336	359.12
2358.178	356.12
2362.015	350.12
2365.85	357.12
2369.681	359.12
2373.508	344.12
2377.333	355.12
2381.153	360.12
2384.971	348.12
2388.785	352.12
2392.595	341.12
2396.402	345.12
2400.206	340.12
2404.007	347.12
2407.804	351.12
2411.597	344.12
2415.388	340.12
2419.174	333.12
2422.958	342.12
2426.738	331.12
2430.515	333.12
2434.289	332.12
2438.059	326.12
2441.825	322.12
2445.589	335.12
2449.349	329.12
2453.106	327.12
2456.859	325.12
2460.61	323.12
2464.356	322.12
2468.1	308.12
2471.84	309.12
2475.577	315.12
2479.311	326.12
2483.041	308.12
2486.768	308.12
2490.492	307.12
2494.213	316.12
2497.93	312.12
2501.644	318.12
2505.355	314.12
2509.062	308.12
2512.766	316.12
2516.467	312.12
2520.165	309.12
2523.859	304.12
2527.551	307.12
2531.239	296.12
2534.923	294.12
2538.605	296.12
2542.283	292.12
2545.958	289.12
2549.63	295.12
2553.299	292.12
2556.964	292.12
2560.626	295.12
2564.285	290.12
2567.941	288.12
2571.594	294.12
2575.243	279.12
2578.89	280.12
2582.533	271.12
2586.173	275.12
2589.809	277.12
2593.443	274.12
2597.073	280.12
2600.701	273.12
2604.325	270.12
2607.946	271.12
2611.564	264.12
2615.178	266.12
2618.79	268.12
2622.398	276.12
2626.004	262.12
2629.606	262.12
2633.205	256.12
2636.801	256.12
2640.394	251.12
2643.983	253.12
2647.57	250.12
2651.153	240.12
2654.734	241.12
2658.311	242.12
2661.885	236.12
2665.456	241.12
2669.025	248.12
2672.589	244.12
2676.151	231.12
2679.71	230.12
2683.266	233.12
2686.819	225.12
2690.368	234.12
2693.915	223.12
2697.458	223.12
2700.999	221.12
2704.536	216.12
2708.071	218.12
2711.602	215.12
2715.13	218.12
2718.656	219.12
2722.178	220.12
2725.697	212.12
2729.214	218.12
2732.727	220.12
2736.237	217.12
2739.744	218.12
2743.249	215.12
2746.75	216.12
2750.248	221.12
2753.743	218.12
2757.236	213.12
2760.725	220.12
2764.211	216.12
2767.695	216.12
2771.175	214.12
2774.652	216.12
2778.127	209.12
2781.598	210.12
2785.067	212.12
2788.532	205.12
2791.995	213.12
2795.455	206.12
2798.911	205.12
2802.365	209.12
2805.816	211.12
2809.264	219.12
2812.709	216.12
2816.151	219.12
2819.59	212.12
2823.026	217.12
2826.46	222.12
2829.89	213.12
2833.318	212.12
2836.742	226.12
2840.164	218.12
2843.583	226.12
2846.999	227.12
2850.412	222.12
2853.822	228.12
2857.229	226.12
2860.634	231.12
2864.035	228.12
2867.434	236.12
2870.83	230.12
2874.223	236.12
2877.613	243.12
2881	246.12
2884.385	236.12
2887.766	248.12
2891.145	237.12
2894.521	236.12
2897.894	244.12
2901.264	250.12
2904.631	249.12
2907.996	241.12
2911.358	249.12
2914.717	253.12
2918.073	257.12
2921.426	256.12
2924.777	261.12
2928.124	265.12
2931.469	269.12
2934.811	271.12
2938.15	272.12
2941.487	276.12
2944.821	283.12
2948.152	276.12
2951.48	287.12
2954.805	294.12
2958.128	295.12
2961.447	311.12
2964.765	311.12
2968.079	309.12
2971.39	316.12
2974.699	320.12
2978.005	319.12
2981.308	350.12
2984.609	344.12
2987.907	358.12
2991.202	357.12
2994.494	373.12
2997.784	390.12
3001.07	395.12
3004.355	410.12
3007.636	418.12
3010.915	415.12
3014.191	423.12
3017.464	436.12
3020.734	443.12
3024.002	439.12
3027.267	461.12
3030.53	449.12
3033.789	457.12
3037.046	479.12
3040.301	482.12
3043.552	488.12
3046.801	511.12
3050.048	520.12
3053.291	529.12
3056.532	552.12
3059.771	560.12
3063.006	573.12
3066.239	593.12
3069.469	608.12
3072.697	611.12
3075.922	635.12
3079.144	656.12
3082.364	684.12
3085.581	688.12
3088.795	711.12
3092.007	716.12
3095.216	726.12
3098.423	753.12
3101.627	772.12
3104.828	788.12
3108.026	797.12
3111.222	816.12
3114.416	846.12
3117.607	850.12
3120.795	870.12
3123.98	897.12
3127.163	914.12
3130.344	935.12
3133.521	956.12
3136.696	990.12
3139.869	994.12
3143.039	1009.12
3146.206	1021.12
3149.371	1049.12
3152.533	1055.12
3155.693	1062.12
3158.85	1071.12
3162.005	1071.12
3165.157	1074.12
3168.306	1076.12
3171.453	1086.12
3174.597	1078.12
3177.739	1078.12
3180.878	1092.12
3184.014	1099.12
3187.149	1099.12
3190.28	1120.12
3193.409	1106.12
3196.536	1116.12
3199.659	1109.12
3202.781	1113.12
3205.9	1134.12
3209.016	1129.12
3212.13	1127.12
3215.241	1107.12
3218.35	1097.12
3221.456	1109.12
3224.56	1088.12
3227.661	1085.12
3230.76	1071.12
3233.856	1081.12
3236.95	1056.12
3240.041	1049.12
3243.13	1041.12
3246.216	1021.12
3249.3	1022.12
3252.382	1020.12
3255.46	1016.12
3258.537	1014.12
3261.611	1014.12
3264.682	1007.12
3267.751	1003.12
3270.818	999.12
3273.882	994.12
3276.943	981.12
3280.002	994.12
3283.059	972.12
3286.113	954.12
3289.165	952.12
3292.214	954.12
3295.261	924.12
3298.306	906.12
3301.348	893.12
3304.387	879.12
3307.425	859.12
3310.459	848.12
3313.492	851.12
3316.521	824.12
3319.549	835.12
3322.574	809.12
3325.597	817.12
3328.617	796.12
3331.635	794.12
3334.65	791.12
3337.663	790.12
3340.674	792.12
3343.682	784.12
3346.688	784.12
3349.691	779.12
3352.692	776.12
3355.691	771.12
3358.687	759.12
3361.681	756.12
3364.673	740.12
3367.662	728.12
3370.649	717.12
3373.633	724.12
3376.615	714.12
3379.595	701.12
3382.572	693.12
3385.547	683.12
3388.52	679.12
3391.49	685.12
3394.458	665.12
3397.424	654.12
3400.387	645.12
3403.348	639.12
3406.307	636.12
3409.263	624.12
3412.217	614.12
3415.168	610.12
3418.118	609.12
3421.065	588.12
3424.009	591.12
3426.951	578.12
3429.891	583.12
3432.829	561.12
3435.764	562.12
3438.697	543.12
3441.628	536.12
3444.557	521.12
3447.483	510.12
3450.407	504.12
3453.328	486.12
3456.247	475.12
3459.164	452.12
3462.079	445.12
3464.991	424.12
3467.902	428.12
3470.809	411.12
3473.715	410.12
3476.618	390.12
3479.519	385.12
3482.418	368.12
3485.315	354.12
3488.209	348.12
3491.101	346.12
3493.99	331.12
3496.878	319.12
3499.763	309.12
3502.646	311.12
3505.527	301.12
3508.405	284.12
3511.281	280.12
3514.155	272.12
3517.027	254.12
3519.897	255.12
3522.764	232.12
3525.629	222.12
3528.492	210.12
3531.352	202.12
3534.211	191.12
3537.067	178.12
3539.921	174.12
3542.773	173.12
3545.622	158.12
3548.469	153.12
3551.315	148.12
3554.157	136.12
3556.998	139.12
3559.837	127.12
3562.673	124.12
3565.507	113.12
3568.339	105.12
3571.169	99.12
3573.996	97.12
3576.822	92.12
3579.645	91.12
3582.466	83.12
3585.285	76.12
3588.101	69.12
3590.916	66.12
3593.728	66.12
3596.538	62.12
3599.346	53.12
3602.152	47.12
3604.956	45.12
3607.757	41.12
3610.556	39.12
3613.354	30.12
3616.149	33.12
3618.942	28.12
3621.732	23.12
3624.521	23.12
3627.307	19.12
3630.092	15.12
3632.874	14.12
3635.654	12.12
3638.432	8.12
3641.208	6.12
3643.982	7.12
3646.753	0.12
3649.523	0.12
3652.29	-3.88
3655.055	-2.88
3657.818	-5.88
3660.579	-12.88
3663.338	-15.88
3666.095	-9.88
3668.849	-14.88
3671.602	-18.88
3674.352	-22.88
3677.101	-17.88
3679.847	-22.88
3682.591	-22.88
3685.333	-27.88
3688.073	-27.88
3690.811	-31.88
3693.547	-31.88
3696.281	-29.88
3699.013	-33.88
3701.742	-35.88
3704.47	-35.88
3707.195	-32.88
3709.919	-36.88
3712.64	-37.88
3715.359	-37.88
3718.076	-37.88
3720.792	-42.88
3723.505	-42.88
3726.216	-47.88
3728.925	-48.88
3731.632	-46.88
3734.336	-45.88
3737.039	-50.88
3739.74	-45.88
3742.439	-49.88
3745.136	-45.88
3747.83	-45.88
3750.523	-42.88
3753.213	-46.88
3755.902	-46.88
3758.589	-49.88
3761.273	-50.88
3763.956	-50.88
3766.636	-53.88
3769.315	-52.88
3771.991	-52.88
3774.665	-57.88
3777.338	-55.88
3780.008	-54.88
3782.677	-52.88
3785.343	-52.88
3788.007	-54.88
3790.67	-55.88
3793.33	-52.88
3795.989	-50.88
3798.645	-50.88
3801.299	-53.88
3803.952	-60.88
3806.602	-56.88
3809.251	-57.88
3811.897	-56.88
3814.542	-58.88
3817.184	-58.88
3819.825	-55.88
3822.463	-54.88
3825.1	-59.88
3827.735	-56.88
3830.367	-56.88
3832.998	-59.88
3835.627	-55.88
3838.253	-57.88
3840.878	-58.88
3843.501	-60.88
3846.122	-56.88
3848.741	-57.88
3851.358	-57.88
3853.973	-58.88
3856.586	-62.88
3859.197	-60.88
3861.806	-57.88
3864.414	-62.88
3867.019	-61.88
3869.622	-59.88
3872.224	-58.88
3874.823	-60.88
3877.421	-60.88
3880.016	-55.88
3882.61	-57.88
3885.202	-51.88
3887.792	-52.88
3890.38	-52.88
3892.966	-59.88
3895.55	-58.88
3898.132	-56.88
3900.713	-61.88
3903.291	-60.88
3905.868	-64.88
3908.442	-64.88
3911.015	-65.88
3913.586	-64.88
3916.155	-66.88
3918.722	-61.88
3921.287	-65.88
3923.85	-63.88
3926.411	-61.88
3928.971	-65.88
3931.528	-63.88
3934.084	-62.88
3936.638	-62.88
3939.19	-60.88
3941.74	-60.88
3944.288	-67.88
3946.834	-64.88
3949.378	-66.88
3951.921	-61.88
3954.462	-68.88
3957	-67.88
3959.537	-63.88
3962.072	-61.88
3964.606	-62.88
3967.137	-60.88
3969.667	-60.88
3972.194	-63.88
3974.72	-62.88
3977.244	-58.88
3979.766	-62.88
3982.286	-63.88
3984.805	-64.88
3987.321	-66.88
3989.836	-63.88
3992.349	-69.88
3994.86	-66.88
3997.369	-63.88
3999.877	-60.88
4002.382	-63.88
4004.886	-60.88
4007.388	-58.88
4009.888	-57.88
4012.386	-59.88
4014.883	-59.88
4017.377	-61.88
4019.87	-63.88
4022.361	-62.88
4024.85	-61.88
4027.338	-64.88
4029.823	-64.88
4032.307	-64.88
4034.789	-65.88
4037.269	-62.88
4039.747	-64.88
4042.224	-62.88
4044.699	-65.88
4047.172	-59.88
4049.643	-64.88
4052.112	-61.88
4054.58	-66.88
4057.046	-61.88
4059.51	-66.88
4061.972	-63.88
4064.432	-65.88
4066.891	-65.88
4069.348	-64.88
4071.803	-60.88
4074.256	-63.88
4076.708	-62.88
4079.158	-63.88
4081.606	-67.88
4084.052	-62.88
4086.497	-63.88
4088.939	-59.88
4091.38	-63.88
4093.819	-61.88
4096.257	-67.88
4098.693	-64.88
4101.127	-66.88
4103.559	-66.88
4105.989	-16.88
4108.418	-17.88
4110.845	-10.88
4113.27	-10.88
4115.694	-10.88
4118.115	-7.88
4120.535	-65.88
4122.954	-67.88
4125.37	-63.88
4127.785	-63.88
4130.198	-58.88
4132.609	-61.88
4135.019	-66.88
4137.427	-67.88
4139.833	-66.88
4142.237	-67.88
