Data from 2018-3-7_conc=3_n=10_RamanShift_04.txt Node
Date: Wed Mar 07 11:46:52 IST 2018
User: aro
Spectrometer: QEPB0276
Trigger mode: 0
Integration Time (sec): 3.000000E1
Scans to average: 1
Electric dark correction enabled: true
Nonlinearity correction enabled: false
Boxcar width: 0
XAxis mode: Raman Shifts
Number of Pixels in Spectrum: 1044
>>>>>Begin Spectral Data<<<<<
160.701	14.1
166.742	22.1
172.777	48.1
178.805	140.1
184.826	345.1
190.841	733.1
196.849	1189.1
202.85	1578.1
208.845	1708.1
214.833	1721.1
220.815	1702.1
226.789	1691.1
232.758	1699.1
238.719	1709.1
244.674	1694.1
250.623	1680.1
256.565	1669.1
262.5	1627.1
268.429	1630.1
274.351	1618.1
280.267	1619.1
286.176	1593.1
292.079	1611.1
297.975	1605.1
303.865	1623.1
309.748	1591.1
315.625	1609.1
321.495	1585.1
327.359	1595.1
333.217	1604.1
339.068	1601.1
344.912	1602.1
350.751	1601.1
356.583	1599.1
362.408	1619.1
368.227	1622.1
374.04	1621.1
379.847	1632.1
385.647	1648.1
391.44	1651.1
397.228	1657.1
403.009	1673.1
408.784	1679.1
414.553	1693.1
420.315	1677.1
426.071	1689.1
431.821	1678.1
437.565	1680.1
443.302	1668.1
449.033	1670.1
454.758	1665.1
460.477	1642.1
466.189	1646.1
471.896	1607.1
477.596	1622.1
483.29	1618.1
488.978	1603.1
494.66	1604.1
500.335	1543.1
506.005	1533.1
511.668	1447.1
517.325	1395.1
522.977	1350.1
528.622	1333.1
534.261	1303.1
539.894	1272.1
545.521	1237.1
551.141	1247.1
556.756	1242.1
562.365	1236.1
567.968	1214.1
573.565	1218.1
579.155	1184.1
584.74	1204.1
590.319	1179.1
595.892	1193.1
601.459	1191.1
607.02	1174.1
612.575	1181.1
618.124	1160.1
623.667	1144.1
629.204	1135.1
634.735	1128.1
640.261	1130.1
645.781	1118.1
651.294	1118.1
656.802	1104.1
662.304	1093.1
667.8	1086.1
673.29	1090.1
678.775	1089.1
684.254	1085.1
689.726	1083.1
695.193	1088.1
700.655	1052.1
706.11	1058.1
711.56	1045.1
717.004	1051.1
722.442	1037.1
727.874	1028.1
733.301	1034.1
738.722	1018.1
744.137	1032.1
749.547	1037.1
754.951	1021.1
760.349	1015.1
765.741	1028.1
771.128	1022.1
776.509	1042.1
781.885	1057.1
787.254	1057.1
792.618	1066.1
797.977	1057.1
803.33	1043.1
808.677	1036.1
814.019	1026.1
819.355	1017.1
824.686	1009.1
830.011	1006.1
835.33	1011.1
840.644	1004.1
845.952	999.1
851.255	997.1
856.552	985.1
861.844	975.1
867.13	960.1
872.41	957.1
877.686	963.1
882.955	967.1
888.219	960.1
893.478	940.1
898.731	914.1
903.979	904.1
909.221	896.1
914.458	886.1
919.69	890.1
924.916	905.1
930.136	898.1
935.351	902.1
940.561	900.1
945.766	905.1
950.965	890.1
956.158	885.1
961.347	861.1
966.529	860.1
971.707	851.1
976.879	833.1
982.046	840.1
987.208	842.1
992.364	821.1
997.515	832.1
1002.66	837.1
1007.801	850.1
1012.936	853.1
1018.066	862.1
1023.19	849.1
1028.309	866.1
1033.423	857.1
1038.532	845.1
1043.636	841.1
1048.734	833.1
1053.827	824.1
1058.915	824.1
1063.998	810.1
1069.075	800.1
1074.147	817.1
1079.214	803.1
1084.276	816.1
1089.333	823.1
1094.385	811.1
1099.431	805.1
1104.472	800.1
1109.509	802.1
1114.54	797.1
1119.565	787.1
1124.586	776.1
1129.602	759.1
1134.613	757.1
1139.618	749.1
1144.619	757.1
1149.614	765.1
1154.604	755.1
1159.589	752.1
1164.57	766.1
1169.545	760.1
1174.515	766.1
1179.48	762.1
1184.44	753.1
1189.395	753.1
1194.345	731.1
1199.29	729.1
1204.23	726.1
1209.165	732.1
1214.095	736.1
1219.021	738.1
1223.941	744.1
1228.856	754.1
1233.766	753.1
1238.672	756.1
1243.572	746.1
1248.467	743.1
1253.358	728.1
1258.244	728.1
1263.124	707.1
1268	707.1
1272.871	706.1
1277.737	688.1
1282.599	683.1
1287.455	690.1
1292.306	692.1
1297.153	675.1
1301.995	682.1
1306.832	694.1
1311.664	696.1
1316.491	692.1
1321.314	697.1
1326.132	693.1
1330.945	684.1
1335.753	669.1
1340.556	644.1
1345.354	645.1
1350.148	628.1
1354.937	609.1
1359.722	602.1
1364.501	587.1
1369.276	587.1
1374.046	568.1
1378.811	565.1
1383.572	562.1
1388.327	554.1
1393.079	558.1
1397.825	560.1
1402.567	568.1
1407.304	568.1
1412.036	565.1
1416.764	568.1
1421.487	570.1
1426.205	575.1
1430.919	575.1
1435.628	571.1
1440.333	589.1
1445.032	573.1
1449.727	605.1
1454.418	599.1
1459.104	583.1
1463.785	576.1
1468.462	569.1
1473.134	547.1
1477.802	533.1
1482.465	534.1
1487.123	518.1
1491.777	500.1
1496.426	503.1
1501.071	494.1
1505.711	489.1
1510.347	492.1
1514.978	488.1
1519.604	484.1
1524.226	486.1
1528.844	482.1
1533.457	479.1
1538.065	476.1
1542.669	468.1
1547.269	476.1
1551.864	482.1
1556.454	490.1
1561.041	491.1
1565.622	506.1
1570.199	496.1
1574.772	486.1
1579.34	506.1
1583.904	510.1
1588.464	518.1
1593.019	514.1
1597.569	520.1
1602.115	517.1
1606.657	514.1
1611.195	509.1
1615.728	515.1
1620.256	512.1
1624.78	511.1
1629.3	509.1
1633.816	511.1
1638.327	521.1
1642.834	509.1
1647.336	508.1
1651.834	506.1
1656.328	510.1
1660.817	505.1
1665.302	493.1
1669.783	494.1
1674.259	471.1
1678.732	472.1
1683.199	446.1
1687.663	432.1
1692.122	412.1
1696.577	399.1
1701.028	378.1
1705.474	363.1
1709.917	361.1
1714.355	344.1
1718.788	346.1
1723.218	348.1
1727.643	339.1
1732.064	347.1
1736.481	350.1
1740.893	340.1
1745.301	326.1
1749.705	322.1
1754.105	308.1
1758.501	311.1
1762.893	310.1
1767.28	294.1
1771.663	296.1
1776.042	288.1
1780.417	284.1
1784.787	276.1
1789.154	265.1
1793.516	266.1
1797.874	257.1
1802.228	265.1
1806.578	263.1
1810.924	248.1
1815.266	247.1
1819.603	255.1
1823.937	259.1
1828.266	251.1
1832.591	268.1
1836.913	264.1
1841.23	258.1
1845.543	253.1
1849.852	270.1
1854.156	271.1
1858.457	259.1
1862.754	269.1
1867.047	256.1
1871.335	263.1
1875.62	255.1
1879.9	262.1
1884.177	245.1
1888.449	259.1
1892.718	245.1
1896.982	239.1
1901.243	235.1
1905.499	231.1
1909.752	231.1
1914	230.1
1918.245	225.1
1922.485	218.1
1926.722	213.1
1930.954	211.1
1935.183	214.1
1939.408	213.1
1943.628	204.1
1947.845	207.1
1952.058	209.1
1956.267	204.1
1960.472	202.1
1964.673	194.1
1968.87	191.1
1973.063	206.1
1977.252	197.1
1981.438	202.1
1985.619	193.1
1989.797	192.1
1993.971	202.1
1998.14	205.1
2002.306	201.1
2006.469	204.1
2010.627	196.1
2014.781	204.1
2018.932	200.1
2023.078	200.1
2027.221	199.1
2031.36	196.1
2035.495	189.1
2039.627	185.1
2043.754	183.1
2047.878	181.1
2051.998	185.1
2056.114	172.1
2060.226	178.1
2064.334	182.1
2068.439	182.1
2072.54	178.1
2076.637	171.1
2080.73	176.1
2084.82	172.1
2088.906	172.1
2092.988	162.1
2097.066	169.1
2101.14	166.1
2105.211	159.1
2109.278	156.1
2113.342	150.1
2117.401	157.1
2121.457	156.1
2125.509	154.1
2129.558	147.1
2133.602	151.1
2137.643	158.1
2141.681	143.1
2145.714	152.1
2149.744	153.1
2153.77	156.1
2157.793	150.1
2161.812	164.1
2165.827	163.1
2169.838	147.1
2173.846	145.1
2177.851	145.1
2181.851	144.1
2185.848	144.1
2189.841	145.1
2193.831	141.1
2197.817	141.1
2201.799	130.1
2205.778	140.1
2209.753	141.1
2213.725	129.1
2217.693	144.1
2221.657	133.1
2225.618	128.1
2229.575	126.1
2233.529	129.1
2237.479	132.1
2241.425	124.1
2245.368	132.1
2249.307	133.1
2253.243	130.1
2257.175	125.1
2261.104	110.1
2265.029	118.1
2268.95	121.1
2272.868	116.1
2276.783	110.1
2280.694	108.1
2284.601	101.1
2288.505	117.1
2292.405	110.1
2296.302	116.1
2300.195	104.1
2304.085	100.1
2307.971	103.1
2311.854	99.1
2315.734	97.1
2319.609	104.1
2323.482	104.1
2327.351	106.1
2331.216	113.1
2335.078	128.1
2338.937	115.1
2342.792	108.1
2346.643	102.1
2350.492	99.1
2354.336	92.1
2358.178	97.1
2362.015	91.1
2365.85	100.1
2369.681	103.1
2373.508	107.1
2377.333	104.1
2381.153	102.1
2384.971	101.1
2388.785	95.1
2392.595	98.1
2396.402	100.1
2400.206	108.1
2404.007	96.1
2407.804	99.1
2411.597	93.1
2415.388	86.1
2419.174	97.1
2422.958	86.1
2426.738	92.1
2430.515	95.1
2434.289	92.1
2438.059	90.1
2441.825	85.1
2445.589	95.1
2449.349	82.1
2453.106	93.1
2456.859	86.1
2460.61	79.1
2464.356	82.1
2468.1	76.1
2471.84	74.1
2475.577	76.1
2479.311	76.1
2483.041	75.1
2486.768	78.1
2490.492	78.1
2494.213	70.1
2497.93	76.1
2501.644	74.1
2505.355	71.1
2509.062	70.1
2512.766	74.1
2516.467	74.1
2520.165	63.1
2523.859	67.1
2527.551	65.1
2531.239	65.1
2534.923	57.1
2538.605	59.1
2542.283	54.1
2545.958	66.1
2549.63	58.1
2553.299	57.1
2556.964	49.1
2560.626	60.1
2564.285	57.1
2567.941	52.1
2571.594	57.1
2575.243	49.1
2578.89	59.1
2582.533	50.1
2586.173	45.1
2589.809	51.1
2593.443	50.1
2597.073	47.1
2600.701	52.1
2604.325	43.1
2607.946	38.1
2611.564	53.1
2615.178	44.1
2618.79	50.1
2622.398	53.1
2626.004	47.1
2629.606	38.1
2633.205	45.1
2636.801	42.1
2640.394	49.1
2643.983	40.1
2647.57	41.1
2651.153	37.1
2654.734	36.1
2658.311	39.1
2661.885	40.1
2665.456	43.1
2669.025	37.1
2672.589	31.1
2676.151	38.1
2679.71	34.1
2683.266	33.1
2686.819	37.1
2690.368	32.1
2693.915	33.1
2697.458	32.1
2700.999	38.1
2704.536	45.1
2708.071	34.1
2711.602	25.1
2715.13	22.1
2718.656	28.1
2722.178	26.1
2725.697	20.1
2729.214	22.1
2732.727	34.1
2736.237	26.1
2739.744	26.1
2743.249	26.1
2746.75	17.1
2750.248	18.1
2753.743	22.1
2757.236	17.1
2760.725	15.1
2764.211	16.1
2767.695	14.1
2771.175	12.1
2774.652	11.1
2778.127	14.1
2781.598	11.1
2785.067	8.1
2788.532	9.1
2791.995	17.1
2795.455	13.1
2798.911	14.1
2802.365	19.1
2805.816	17.1
2809.264	21.1
2812.709	18.1
2816.151	21.1
2819.59	32.1
2823.026	19.1
2826.46	21.1
2829.89	14.1
2833.318	16.1
2836.742	24.1
2840.164	17.1
2843.583	19.1
2846.999	20.1
2850.412	17.1
2853.822	19.1
2857.229	23.1
2860.634	12.1
2864.035	15.1
2867.434	17.1
2870.83	30.1
2874.223	24.1
2877.613	27.1
2881	27.1
2884.385	27.1
2887.766	32.1
2891.145	29.1
2894.521	28.1
2897.894	28.1
2901.264	26.1
2904.631	16.1
2907.996	30.1
2911.358	34.1
2914.717	29.1
2918.073	27.1
2921.426	29.1
2924.777	32.1
2928.124	40.1
2931.469	38.1
2934.811	42.1
2938.15	41.1
2941.487	48.1
2944.821	36.1
2948.152	48.1
2951.48	42.1
2954.805	42.1
2958.128	37.1
2961.447	45.1
2964.765	33.1
2968.079	29.1
2971.39	36.1
2974.699	37.1
2978.005	47.1
2981.308	38.1
2984.609	34.1
2987.907	38.1
2991.202	38.1
2994.494	37.1
2997.784	35.1
3001.07	38.1
3004.355	41.1
3007.636	38.1
3010.915	42.1
3014.191	42.1
3017.464	41.1
3020.734	47.1
3024.002	47.1
3027.267	41.1
3030.53	46.1
3033.789	40.1
3037.046	42.1
3040.301	47.1
3043.552	52.1
3046.801	59.1
3050.048	61.1
3053.291	57.1
3056.532	65.1
3059.771	61.1
3063.006	74.1
3066.239	71.1
3069.469	67.1
3072.697	71.1
3075.922	71.1
3079.144	73.1
3082.364	81.1
3085.581	82.1
3088.795	89.1
3092.007	90.1
3095.216	91.1
3098.423	88.1
3101.627	91.1
3104.828	99.1
3108.026	93.1
3111.222	102.1
3114.416	105.1
3117.607	107.1
3120.795	114.1
3123.98	114.1
3127.163	124.1
3130.344	122.1
3133.521	120.1
3136.696	121.1
3139.869	132.1
3143.039	125.1
3146.206	132.1
3149.371	130.1
3152.533	140.1
3155.693	137.1
3158.85	140.1
3162.005	138.1
3165.157	145.1
3168.306	141.1
3171.453	143.1
3174.597	141.1
3177.739	141.1
3180.878	140.1
3184.014	132.1
3187.149	139.1
3190.28	139.1
3193.409	144.1
3196.536	135.1
3199.659	139.1
3202.781	141.1
3205.9	139.1
3209.016	140.1
3212.13	143.1
3215.241	152.1
3218.35	143.1
3221.456	144.1
3224.56	135.1
3227.661	134.1
3230.76	130.1
3233.856	133.1
3236.95	126.1
3240.041	115.1
3243.13	123.1
3246.216	113.1
3249.3	111.1
3252.382	119.1
3255.46	119.1
3258.537	112.1
3261.611	107.1
3264.682	115.1
3267.751	112.1
3270.818	101.1
3273.882	108.1
3276.943	111.1
3280.002	109.1
3283.059	104.1
3286.113	88.1
3289.165	106.1
3292.214	95.1
3295.261	95.1
3298.306	97.1
3301.348	99.1
3304.387	90.1
3307.425	98.1
3310.459	91.1
3313.492	95.1
3316.521	92.1
3319.549	102.1
3322.574	97.1
3325.597	88.1
3328.617	89.1
3331.635	95.1
3334.65	100.1
3337.663	85.1
3340.674	95.1
3343.682	92.1
3346.688	91.1
3349.691	92.1
3352.692	94.1
3355.691	95.1
3358.687	88.1
3361.681	97.1
3364.673	96.1
3367.662	89.1
3370.649	93.1
3373.633	92.1
3376.615	80.1
3379.595	83.1
3382.572	76.1
3385.547	80.1
3388.52	77.1
3391.49	71.1
3394.458	69.1
3397.424	75.1
3400.387	71.1
3403.348	64.1
3406.307	70.1
3409.263	71.1
3412.217	70.1
3415.168	73.1
3418.118	65.1
3421.065	63.1
3424.009	66.1
3426.951	56.1
3429.891	60.1
3432.829	54.1
3435.764	61.1
3438.697	56.1
3441.628	41.1
3444.557	49.1
3447.483	45.1
3450.407	40.1
3453.328	40.1
3456.247	36.1
3459.164	32.1
3462.079	26.1
3464.991	32.1
3467.902	30.1
3470.809	31.1
3473.715	20.1
3476.618	20.1
3479.519	11.1
3482.418	20.1
3485.315	12.1
3488.209	8.1
3491.101	5.1
3493.99	13.1
3496.878	7.1
3499.763	2.1
3502.646	2.1
3505.527	0.1
3508.405	8.1
3511.281	1.1
3514.155	0.1
3517.027	-2.9
3519.897	-1.9
3522.764	-2.9
3525.629	-10.9
3528.492	-9.9
3531.352	-16.9
3534.211	-16.9
3537.067	-19.9
3539.921	-15.9
3542.773	-21.9
3545.622	-23.9
3548.469	-20.9
3551.315	-17.9
3554.157	-23.9
3556.998	-22.9
3559.837	-20.9
3562.673	-22.9
3565.507	-23.9
3568.339	-21.9
3571.169	-27.9
3573.996	-22.9
3576.822	-29.9
3579.645	-32.9
3582.466	-29.9
3585.285	-33.9
3588.101	-30.9
3590.916	-28.9
3593.728	-34.9
3596.538	-34.9
3599.346	-31.9
3602.152	-32.9
3604.956	-32.9
3607.757	-29.9
3610.556	-30.9
3613.354	-37.9
3616.149	-36.9
3618.942	-35.9
3621.732	-41.9
3624.521	-35.9
3627.307	-37.9
3630.092	-41.9
3632.874	-40.9
3635.654	-44.9
3638.432	-35.9
3641.208	-37.9
3643.982	-33.9
3646.753	-41.9
3649.523	-36.9
3652.29	-43.9
3655.055	-38.9
3657.818	-47.9
3660.579	-47.9
3663.338	-36.9
3666.095	-47.9
3668.849	-48.9
3671.602	-47.9
3674.352	-41.9
3677.101	-45.9
3679.847	-44.9
3682.591	-49.9
3685.333	-45.9
3688.073	-53.9
3690.811	-45.9
3693.547	-50.9
3696.281	-44.9
3699.013	-45.9
3701.742	-52.9
3704.47	-43.9
3707.195	-43.9
3709.919	-49.9
3712.64	-51.9
3715.359	-52.9
3718.076	-54.9
3720.792	-51.9
3723.505	-50.9
3726.216	-48.9
3728.925	-48.9
3731.632	-46.9
3734.336	-48.9
3737.039	-45.9
3739.74	-49.9
3742.439	-51.9
3745.136	-50.9
3747.83	-48.9
3750.523	-50.9
3753.213	-54.9
3755.902	-52.9
3758.589	-51.9
3761.273	-50.9
3763.956	-56.9
3766.636	-50.9
3769.315	-48.9
3771.991	-54.9
3774.665	-58.9
3777.338	-50.9
3780.008	-50.9
3782.677	-54.9
3785.343	-49.9
3788.007	-51.9
3790.67	-51.9
3793.33	-53.9
3795.989	-57.9
3798.645	-54.9
3801.299	-55.9
3803.952	-56.9
3806.602	-52.9
3809.251	-55.9
3811.897	-55.9
3814.542	-58.9
3817.184	-54.9
3819.825	-48.9
3822.463	-47.9
3825.1	-50.9
3827.735	-60.9
3830.367	-54.9
3832.998	-55.9
3835.627	-55.9
3838.253	-46.9
3840.878	-45.9
3843.501	-47.9
3846.122	-56.9
3848.741	-51.9
3851.358	-56.9
3853.973	-51.9
3856.586	-52.9
3859.197	-50.9
3861.806	-48.9
3864.414	-51.9
3867.019	-55.9
3869.622	-46.9
3872.224	-38.9
3874.823	-31.9
3877.421	-28.9
3880.016	-17.9
3882.61	3.1
3885.202	3.1
3887.792	-4.9
3890.38	-19.9
3892.966	-42.9
3895.55	-45.9
3898.132	-48.9
3900.713	-51.9
3903.291	-53.9
3905.868	-46.9
3908.442	-50.9
3911.015	-45.9
3913.586	-54.9
3916.155	-53.9
3918.722	-51.9
3921.287	-51.9
3923.85	-45.9
3926.411	-55.9
3928.971	-61.9
3931.528	-55.9
3934.084	-53.9
3936.638	-53.9
3939.19	-58.9
3941.74	-60.9
3944.288	-53.9
3946.834	-52.9
3949.378	-55.9
3951.921	-54.9
3954.462	-56.9
3957	-48.9
3959.537	-42.9
3962.072	-48.9
3964.606	-50.9
3967.137	-52.9
3969.667	-56.9
3972.194	-50.9
3974.72	-49.9
3977.244	-47.9
3979.766	-51.9
3982.286	-54.9
3984.805	-64.9
3987.321	-52.9
3989.836	-51.9
3992.349	-51.9
3994.86	-54.9
3997.369	-57.9
3999.877	-52.9
4002.382	-51.9
4004.886	-52.9
4007.388	-53.9
4009.888	-50.9
4012.386	-57.9
4014.883	-46.9
4017.377	-49.9
4019.87	-53.9
4022.361	-54.9
4024.85	-52.9
4027.338	-53.9
4029.823	-55.9
4032.307	-52.9
4034.789	-48.9
4037.269	-53.9
4039.747	-57.9
4042.224	-55.9
4044.699	-57.9
4047.172	-56.9
4049.643	-53.9
4052.112	-54.9
4054.58	-50.9
4057.046	-49.9
4059.51	-53.9
4061.972	-56.9
4064.432	-44.9
4066.891	-47.9
4069.348	-47.9
4071.803	-52.9
4074.256	-49.9
4076.708	-53.9
4079.158	-57.9
4081.606	-54.9
4084.052	-59.9
4086.497	-46.9
4088.939	-50.9
4091.38	-57.9
4093.819	-60.9
4096.257	-56.9
4098.693	-53.9
4101.127	-47.9
4103.559	-57.9
4105.989	29.1
4108.418	16.1
4110.845	12.1
4113.27	11.1
4115.694	19.1
4118.115	19.1
4120.535	-50.9
4122.954	-47.9
4125.37	-51.9
4127.785	-52.9
4130.198	-49.9
4132.609	-55.9
4135.019	-54.9
4137.427	-57.9
4139.833	-56.9
4142.237	-54.9
