Data from 2018-3-7_conc=5_n=2_RamanShift_01.txt Node
Date: Wed Mar 07 12:25:52 IST 2018
User: aro
Spectrometer: QEPB0276
Trigger mode: 0
Integration Time (sec): 3.000000E1
Scans to average: 1
Electric dark correction enabled: true
Nonlinearity correction enabled: false
Boxcar width: 0
XAxis mode: Raman Shifts
Number of Pixels in Spectrum: 1044
>>>>>Begin Spectral Data<<<<<
160.701	12.1
166.742	27.1
172.777	57.1
178.805	161.1
184.826	429.1
190.841	913.1
196.849	1523.1
202.85	1983.1
208.845	2187.1
214.833	2176.1
220.815	2160.1
226.789	2147.1
232.758	2156.1
238.719	2153.1
244.674	2127.1
250.623	2114.1
256.565	2064.1
262.5	2073.1
268.429	2036.1
274.351	2029.1
280.267	2006.1
286.176	1993.1
292.079	2001.1
297.975	1970.1
303.865	1988.1
309.748	1974.1
315.625	1978.1
321.495	1958.1
327.359	1979.1
333.217	1968.1
339.068	1966.1
344.912	1992.1
350.751	1968.1
356.583	1981.1
362.408	1978.1
368.227	1989.1
374.04	1984.1
379.847	2017.1
385.647	2018.1
391.44	2012.1
397.228	2025.1
403.009	2046.1
408.784	2032.1
414.553	2069.1
420.315	2061.1
426.071	2069.1
431.821	2056.1
437.565	2056.1
443.302	2040.1
449.033	2049.1
454.758	2028.1
460.477	2014.1
466.189	1996.1
471.896	2003.1
477.596	1971.1
483.29	1980.1
488.978	1981.1
494.66	1974.1
500.335	1941.1
506.005	1872.1
511.668	1819.1
517.325	1787.1
522.977	1711.1
528.622	1689.1
534.261	1665.1
539.894	1632.1
545.521	1643.1
551.141	1612.1
556.756	1621.1
562.365	1596.1
567.968	1588.1
573.565	1573.1
579.155	1564.1
584.74	1570.1
590.319	1559.1
595.892	1572.1
601.459	1545.1
607.02	1544.1
612.575	1531.1
618.124	1517.1
623.667	1510.1
629.204	1496.1
634.735	1473.1
640.261	1459.1
645.781	1473.1
651.294	1467.1
656.802	1442.1
662.304	1459.1
667.8	1442.1
673.29	1443.1
678.775	1442.1
684.254	1437.1
689.726	1425.1
695.193	1422.1
700.655	1409.1
706.11	1404.1
711.56	1391.1
717.004	1376.1
722.442	1381.1
727.874	1370.1
733.301	1349.1
738.722	1369.1
744.137	1357.1
749.547	1365.1
754.951	1357.1
760.349	1349.1
765.741	1363.1
771.128	1362.1
776.509	1371.1
781.885	1383.1
787.254	1380.1
792.618	1382.1
797.977	1380.1
803.33	1358.1
808.677	1361.1
814.019	1351.1
819.355	1342.1
824.686	1334.1
830.011	1319.1
835.33	1313.1
840.644	1289.1
845.952	1322.1
851.255	1308.1
856.552	1308.1
861.844	1295.1
867.13	1290.1
872.41	1278.1
877.686	1275.1
882.955	1272.1
888.219	1248.1
893.478	1231.1
898.731	1230.1
903.979	1208.1
909.221	1201.1
914.458	1193.1
919.69	1193.1
924.916	1199.1
930.136	1204.1
935.351	1191.1
940.561	1199.1
945.766	1196.1
950.965	1192.1
956.158	1194.1
961.347	1164.1
966.529	1152.1
971.707	1129.1
976.879	1115.1
982.046	1115.1
987.208	1120.1
992.364	1095.1
997.515	1106.1
1002.66	1118.1
1007.801	1125.1
1012.936	1145.1
1018.066	1154.1
1023.19	1155.1
1028.309	1151.1
1033.423	1140.1
1038.532	1138.1
1043.636	1124.1
1048.734	1112.1
1053.827	1096.1
1058.915	1088.1
1063.998	1068.1
1069.075	1065.1
1074.147	1058.1
1079.214	1074.1
1084.276	1089.1
1089.333	1101.1
1094.385	1088.1
1099.431	1067.1
1104.472	1075.1
1109.509	1090.1
1114.54	1047.1
1119.565	1053.1
1124.586	1043.1
1129.602	1022.1
1134.613	1019.1
1139.618	1009.1
1144.619	1001.1
1149.614	1024.1
1154.604	1014.1
1159.589	1012.1
1164.57	1023.1
1169.545	994.1
1174.515	1021.1
1179.48	1015.1
1184.44	1014.1
1189.395	1005.1
1194.345	989.1
1199.29	984.1
1204.23	978.1
1209.165	989.1
1214.095	991.1
1219.021	998.1
1223.941	1002.1
1228.856	1016.1
1233.766	1003.1
1238.672	1016.1
1243.572	1011.1
1248.467	1009.1
1253.358	982.1
1258.244	967.1
1263.124	952.1
1268	949.1
1272.871	931.1
1277.737	927.1
1282.599	929.1
1287.455	923.1
1292.306	917.1
1297.153	924.1
1301.995	923.1
1306.832	932.1
1311.664	949.1
1316.491	940.1
1321.314	950.1
1326.132	919.1
1330.945	902.1
1335.753	906.1
1340.556	877.1
1345.354	859.1
1350.148	841.1
1354.937	830.1
1359.722	812.1
1364.501	786.1
1369.276	780.1
1374.046	770.1
1378.811	755.1
1383.572	754.1
1388.327	753.1
1393.079	752.1
1397.825	760.1
1402.567	769.1
1407.304	763.1
1412.036	764.1
1416.764	780.1
1421.487	783.1
1426.205	764.1
1430.919	785.1
1435.628	779.1
1440.333	790.1
1445.032	786.1
1449.727	806.1
1454.418	791.1
1459.104	789.1
1463.785	794.1
1468.462	761.1
1473.134	748.1
1477.802	737.1
1482.465	727.1
1487.123	693.1
1491.777	680.1
1496.426	678.1
1501.071	663.1
1505.711	660.1
1510.347	660.1
1514.978	649.1
1519.604	637.1
1524.226	640.1
1528.844	639.1
1533.457	623.1
1538.065	626.1
1542.669	636.1
1547.269	613.1
1551.864	632.1
1556.454	651.1
1561.041	651.1
1565.622	657.1
1570.199	649.1
1574.772	667.1
1579.34	678.1
1583.904	685.1
1588.464	704.1
1593.019	694.1
1597.569	714.1
1602.115	707.1
1606.657	680.1
1611.195	700.1
1615.728	684.1
1620.256	686.1
1624.78	698.1
1629.3	701.1
1633.816	689.1
1638.327	702.1
1642.834	683.1
1647.336	680.1
1651.834	689.1
1656.328	689.1
1660.817	688.1
1665.302	682.1
1669.783	659.1
1674.259	638.1
1678.732	624.1
1683.199	602.1
1687.663	591.1
1692.122	557.1
1696.577	530.1
1701.028	502.1
1705.474	475.1
1709.917	456.1
1714.355	463.1
1718.788	450.1
1723.218	454.1
1727.643	447.1
1732.064	465.1
1736.481	456.1
1740.893	440.1
1745.301	438.1
1749.705	422.1
1754.105	418.1
1758.501	404.1
1762.893	397.1
1767.28	398.1
1771.663	384.1
1776.042	388.1
1780.417	381.1
1784.787	361.1
1789.154	355.1
1793.516	346.1
1797.874	343.1
1802.228	342.1
1806.578	333.1
1810.924	337.1
1815.266	328.1
1819.603	333.1
1823.937	333.1
1828.266	338.1
1832.591	340.1
1836.913	346.1
1841.23	337.1
1845.543	344.1
1849.852	348.1
1854.156	343.1
1858.457	357.1
1862.754	355.1
1867.047	348.1
1871.335	341.1
1875.62	346.1
1879.9	339.1
1884.177	333.1
1888.449	335.1
1892.718	336.1
1896.982	327.1
1901.243	313.1
1905.499	313.1
1909.752	304.1
1914	308.1
1918.245	287.1
1922.485	281.1
1926.722	277.1
1930.954	277.1
1935.183	280.1
1939.408	274.1
1943.628	265.1
1947.845	266.1
1952.058	261.1
1956.267	254.1
1960.472	264.1
1964.673	257.1
1968.87	252.1
1973.063	254.1
1977.252	260.1
1981.438	261.1
1985.619	256.1
1989.797	261.1
1993.971	262.1
1998.14	267.1
2002.306	267.1
2006.469	274.1
2010.627	261.1
2014.781	269.1
2018.932	262.1
2023.078	264.1
2027.221	260.1
2031.36	257.1
2035.495	253.1
2039.627	235.1
2043.754	246.1
2047.878	239.1
2051.998	249.1
2056.114	244.1
2060.226	234.1
2064.334	245.1
2068.439	236.1
2072.54	229.1
2076.637	232.1
2080.73	229.1
2084.82	234.1
2088.906	225.1
2092.988	220.1
2097.066	214.1
2101.14	220.1
2105.211	212.1
2109.278	205.1
2113.342	199.1
2117.401	202.1
2121.457	198.1
2125.509	200.1
2129.558	201.1
2133.602	202.1
2137.643	201.1
2141.681	194.1
2145.714	199.1
2149.744	205.1
2153.77	204.1
2157.793	204.1
2161.812	217.1
2165.827	209.1
2169.838	199.1
2173.846	201.1
2177.851	197.1
2181.851	198.1
2185.848	186.1
2189.841	192.1
2193.831	183.1
2197.817	185.1
2201.799	184.1
2205.778	186.1
2209.753	187.1
2213.725	176.1
2217.693	186.1
2221.657	190.1
2225.618	178.1
2229.575	180.1
2233.529	182.1
2237.479	188.1
2241.425	176.1
2245.368	178.1
2249.307	182.1
2253.243	172.1
2257.175	171.1
2261.104	162.1
2265.029	161.1
2268.95	170.1
2272.868	164.1
2276.783	151.1
2280.694	153.1
2284.601	150.1
2288.505	154.1
2292.405	147.1
2296.302	159.1
2300.195	147.1
2304.085	149.1
2307.971	147.1
2311.854	141.1
2315.734	136.1
2319.609	144.1
2323.482	138.1
2327.351	152.1
2331.216	149.1
2335.078	169.1
2338.937	156.1
2342.792	144.1
2346.643	148.1
2350.492	141.1
2354.336	139.1
2358.178	136.1
2362.015	142.1
2365.85	139.1
2369.681	143.1
2373.508	147.1
2377.333	147.1
2381.153	148.1
2384.971	136.1
2388.785	140.1
2392.595	148.1
2396.402	151.1
2400.206	141.1
2404.007	135.1
2407.804	142.1
2411.597	139.1
2415.388	130.1
2419.174	147.1
2422.958	134.1
2426.738	135.1
2430.515	131.1
2434.289	133.1
2438.059	132.1
2441.825	127.1
2445.589	125.1
2449.349	126.1
2453.106	126.1
2456.859	122.1
2460.61	127.1
2464.356	124.1
2468.1	123.1
2471.84	122.1
2475.577	115.1
2479.311	120.1
2483.041	116.1
2486.768	119.1
2490.492	109.1
2494.213	109.1
2497.93	113.1
2501.644	109.1
2505.355	101.1
2509.062	108.1
2512.766	106.1
2516.467	106.1
2520.165	103.1
2523.859	113.1
2527.551	99.1
2531.239	99.1
2534.923	100.1
2538.605	96.1
2542.283	89.1
2545.958	93.1
2549.63	92.1
2553.299	92.1
2556.964	82.1
2560.626	87.1
2564.285	85.1
2567.941	85.1
2571.594	76.1
2575.243	79.1
2578.89	82.1
2582.533	78.1
2586.173	75.1
2589.809	82.1
2593.443	83.1
2597.073	75.1
2600.701	79.1
2604.325	70.1
2607.946	68.1
2611.564	75.1
2615.178	77.1
2618.79	76.1
2622.398	70.1
2626.004	76.1
2629.606	62.1
2633.205	68.1
2636.801	58.1
2640.394	75.1
2643.983	69.1
2647.57	62.1
2651.153	57.1
2654.734	65.1
2658.311	59.1
2661.885	63.1
2665.456	63.1
2669.025	73.1
2672.589	58.1
2676.151	63.1
2679.71	61.1
2683.266	60.1
2686.819	65.1
2690.368	55.1
2693.915	56.1
2697.458	54.1
2700.999	60.1
2704.536	56.1
2708.071	51.1
2711.602	51.1
2715.13	42.1
2718.656	47.1
2722.178	41.1
2725.697	42.1
2729.214	46.1
2732.727	45.1
2736.237	49.1
2739.744	38.1
2743.249	36.1
2746.75	40.1
2750.248	35.1
2753.743	40.1
2757.236	35.1
2760.725	33.1
2764.211	33.1
2767.695	29.1
2771.175	27.1
2774.652	27.1
2778.127	25.1
2781.598	23.1
2785.067	26.1
2788.532	27.1
2791.995	26.1
2795.455	24.1
2798.911	29.1
2802.365	40.1
2805.816	33.1
2809.264	35.1
2812.709	30.1
2816.151	37.1
2819.59	39.1
2823.026	35.1
2826.46	29.1
2829.89	32.1
2833.318	35.1
2836.742	36.1
2840.164	36.1
2843.583	33.1
2846.999	39.1
2850.412	32.1
2853.822	33.1
2857.229	40.1
2860.634	34.1
2864.035	37.1
2867.434	42.1
2870.83	41.1
2874.223	43.1
2877.613	45.1
2881	44.1
2884.385	48.1
2887.766	49.1
2891.145	45.1
2894.521	44.1
2897.894	47.1
2901.264	45.1
2904.631	40.1
2907.996	48.1
2911.358	57.1
2914.717	55.1
2918.073	49.1
2921.426	54.1
2924.777	52.1
2928.124	59.1
2931.469	58.1
2934.811	65.1
2938.15	64.1
2941.487	71.1
2944.821	66.1
2948.152	68.1
2951.48	70.1
2954.805	64.1
2958.128	62.1
2961.447	65.1
2964.765	60.1
2968.079	58.1
2971.39	60.1
2974.699	54.1
2978.005	61.1
2981.308	54.1
2984.609	49.1
2987.907	58.1
2991.202	58.1
2994.494	60.1
2997.784	55.1
3001.07	56.1
3004.355	56.1
3007.636	66.1
3010.915	63.1
3014.191	60.1
3017.464	66.1
3020.734	69.1
3024.002	69.1
3027.267	70.1
3030.53	71.1
3033.789	75.1
3037.046	77.1
3040.301	74.1
3043.552	82.1
3046.801	88.1
3050.048	82.1
3053.291	89.1
3056.532	88.1
3059.771	93.1
3063.006	98.1
3066.239	106.1
3069.469	118.1
3072.697	114.1
3075.922	120.1
3079.144	117.1
3082.364	131.1
3085.581	130.1
3088.795	131.1
3092.007	135.1
3095.216	142.1
3098.423	137.1
3101.627	137.1
3104.828	139.1
3108.026	148.1
3111.222	143.1
3114.416	153.1
3117.607	155.1
3120.795	155.1
3123.98	165.1
3127.163	177.1
3130.344	173.1
3133.521	175.1
3136.696	183.1
3139.869	188.1
3143.039	192.1
3146.206	193.1
3149.371	185.1
3152.533	195.1
3155.693	196.1
3158.85	198.1
3162.005	196.1
3165.157	204.1
3168.306	200.1
3171.453	197.1
3174.597	204.1
3177.739	209.1
3180.878	204.1
3184.014	196.1
3187.149	199.1
3190.28	196.1
3193.409	209.1
3196.536	201.1
3199.659	208.1
3202.781	206.1
3205.9	200.1
3209.016	204.1
3212.13	203.1
3215.241	205.1
3218.35	197.1
3221.456	206.1
3224.56	189.1
3227.661	189.1
3230.76	186.1
3233.856	189.1
3236.95	184.1
3240.041	170.1
3243.13	181.1
3246.216	170.1
3249.3	158.1
3252.382	166.1
3255.46	170.1
3258.537	165.1
3261.611	158.1
3264.682	157.1
3267.751	160.1
3270.818	150.1
3273.882	157.1
3276.943	159.1
3280.002	157.1
3283.059	154.1
3286.113	145.1
3289.165	149.1
3292.214	148.1
3295.261	136.1
3298.306	143.1
3301.348	134.1
3304.387	143.1
3307.425	137.1
3310.459	142.1
3313.492	132.1
3316.521	136.1
3319.549	142.1
3322.574	139.1
3325.597	141.1
3328.617	130.1
3331.635	136.1
3334.65	144.1
3337.663	125.1
3340.674	139.1
3343.682	131.1
3346.688	139.1
3349.691	140.1
3352.692	144.1
3355.691	145.1
3358.687	131.1
3361.681	135.1
3364.673	136.1
3367.662	136.1
3370.649	130.1
3373.633	125.1
3376.615	124.1
3379.595	119.1
3382.572	112.1
3385.547	119.1
3388.52	120.1
3391.49	113.1
3394.458	114.1
3397.424	112.1
3400.387	116.1
3403.348	99.1
3406.307	102.1
3409.263	103.1
3412.217	103.1
3415.168	107.1
3418.118	95.1
3421.065	95.1
3424.009	93.1
3426.951	86.1
3429.891	85.1
3432.829	88.1
3435.764	87.1
3438.697	88.1
3441.628	71.1
3444.557	68.1
3447.483	71.1
3450.407	66.1
3453.328	64.1
3456.247	58.1
3459.164	55.1
3462.079	54.1
3464.991	54.1
3467.902	47.1
3470.809	50.1
3473.715	49.1
3476.618	44.1
3479.519	38.1
3482.418	35.1
3485.315	35.1
3488.209	25.1
3491.101	24.1
3493.99	23.1
3496.878	20.1
3499.763	12.1
3502.646	15.1
3505.527	15.1
3508.405	13.1
3511.281	16.1
3514.155	7.1
3517.027	0.1
3519.897	10.1
3522.764	4.1
3525.629	5.1
3528.492	4.1
3531.352	-9.9
3534.211	-5.9
3537.067	-2.9
3539.921	-5.9
3542.773	-14.9
3545.622	-9.9
3548.469	-13.9
3551.315	-12.9
3554.157	-19.9
3556.998	-16.9
3559.837	-19.9
3562.673	-20.9
3565.507	-25.9
3568.339	-19.9
3571.169	-26.9
3573.996	-23.9
3576.822	-30.9
3579.645	-29.9
3582.466	-29.9
3585.285	-29.9
3588.101	-31.9
3590.916	-26.9
3593.728	-34.9
3596.538	-30.9
3599.346	-34.9
3602.152	-32.9
3604.956	-29.9
3607.757	-30.9
3610.556	-34.9
3613.354	-41.9
3616.149	-38.9
3618.942	-42.9
3621.732	-46.9
3624.521	-37.9
3627.307	-40.9
3630.092	-44.9
3632.874	-37.9
3635.654	-43.9
3638.432	-41.9
3641.208	-40.9
3643.982	-37.9
3646.753	-40.9
3649.523	-40.9
3652.29	-45.9
3655.055	-36.9
3657.818	-49.9
3660.579	-45.9
3663.338	-42.9
3666.095	-46.9
3668.849	-51.9
3671.602	-47.9
3674.352	-46.9
3677.101	-47.9
3679.847	-49.9
3682.591	-52.9
3685.333	-44.9
3688.073	-54.9
3690.811	-50.9
3693.547	-52.9
3696.281	-48.9
3699.013	-44.9
3701.742	-56.9
3704.47	-47.9
3707.195	-53.9
3709.919	-50.9
3712.64	-50.9
3715.359	-50.9
3718.076	-57.9
3720.792	-57.9
3723.505	-53.9
3726.216	-52.9
3728.925	-58.9
3731.632	-56.9
3734.336	-55.9
3737.039	-49.9
3739.74	-57.9
3742.439	-59.9
3745.136	-56.9
3747.83	-52.9
3750.523	-60.9
3753.213	-64.9
3755.902	-55.9
3758.589	-51.9
3761.273	-54.9
3763.956	-54.9
3766.636	-51.9
3769.315	-51.9
3771.991	-57.9
3774.665	-61.9
3777.338	-61.9
3780.008	-57.9
3782.677	-61.9
3785.343	-57.9
3788.007	-53.9
3790.67	-56.9
3793.33	-55.9
3795.989	-58.9
3798.645	-57.9
3801.299	-55.9
3803.952	-56.9
3806.602	-56.9
3809.251	-57.9
3811.897	-57.9
3814.542	-59.9
3817.184	-59.9
3819.825	-53.9
3822.463	-55.9
3825.1	-54.9
3827.735	-65.9
3830.367	-65.9
3832.998	-59.9
3835.627	-54.9
3838.253	-53.9
3840.878	-51.9
3843.501	-51.9
3846.122	-57.9
3848.741	-56.9
3851.358	-57.9
3853.973	-51.9
3856.586	-53.9
3859.197	-58.9
3861.806	-59.9
3864.414	-61.9
3867.019	-62.9
3869.622	-51.9
3872.224	-47.9
3874.823	-36.9
3877.421	-36.9
3880.016	-19.9
3882.61	1.1
3885.202	-0.9
3887.792	-4.9
3890.38	-29.9
3892.966	-46.9
3895.55	-55.9
3898.132	-58.9
3900.713	-56.9
3903.291	-61.9
3905.868	-59.9
3908.442	-58.9
3911.015	-57.9
3913.586	-63.9
3916.155	-57.9
3918.722	-57.9
3921.287	-65.9
3923.85	-56.9
3926.411	-67.9
3928.971	-71.9
3931.528	-63.9
3934.084	-55.9
3936.638	-57.9
3939.19	-63.9
3941.74	-56.9
3944.288	-60.9
3946.834	-57.9
3949.378	-56.9
3951.921	-62.9
3954.462	-56.9
3957	-56.9
3959.537	-51.9
3962.072	-54.9
3964.606	-57.9
3967.137	-57.9
3969.667	-57.9
3972.194	-57.9
3974.72	-54.9
3977.244	-55.9
3979.766	-60.9
3982.286	-59.9
3984.805	-63.9
3987.321	-56.9
3989.836	-57.9
3992.349	-58.9
3994.86	-55.9
3997.369	-56.9
3999.877	-58.9
4002.382	-57.9
4004.886	-59.9
4007.388	-58.9
4009.888	-58.9
4012.386	-60.9
4014.883	-60.9
4017.377	-55.9
4019.87	-59.9
4022.361	-67.9
4024.85	-58.9
4027.338	-60.9
4029.823	-55.9
4032.307	-58.9
4034.789	-57.9
4037.269	-55.9
4039.747	-60.9
4042.224	-57.9
4044.699	-58.9
4047.172	-62.9
4049.643	-58.9
4052.112	-56.9
4054.58	-59.9
4057.046	-58.9
4059.51	-61.9
4061.972	-66.9
4064.432	-59.9
4066.891	-59.9
4069.348	-59.9
4071.803	-56.9
4074.256	-54.9
4076.708	-56.9
4079.158	-62.9
4081.606	-55.9
4084.052	-55.9
4086.497	-50.9
4088.939	-53.9
4091.38	-51.9
4093.819	-61.9
4096.257	-63.9
4098.693	-63.9
4101.127	-58.9
4103.559	-65.9
4105.989	17.1
4108.418	5.1
4110.845	5.1
4113.27	11.1
4115.694	10.1
4118.115	13.1
4120.535	-59.9
4122.954	-51.9
4125.37	-60.9
4127.785	-57.9
4130.198	-56.9
4132.609	-60.9
4135.019	-61.9
4137.427	-64.9
4139.833	-65.9
4142.237	-64.9
