Data from 2018-3-7_conc=6_n=9_RamanShift_05.txt Node
Date: Wed Mar 07 13:24:51 IST 2018
User: aro
Spectrometer: QEPB0276
Trigger mode: 0
Integration Time (sec): 3.000000E1
Scans to average: 1
Electric dark correction enabled: true
Nonlinearity correction enabled: false
Boxcar width: 0
XAxis mode: Raman Shifts
Number of Pixels in Spectrum: 1044
>>>>>Begin Spectral Data<<<<<
160.701	6.8
166.742	19.8
172.777	45.8
178.805	144.8
184.826	377.8
190.841	801.8
196.849	1358.8
202.85	1762.8
208.845	1916.8
214.833	1938.8
220.815	1917.8
226.789	1897.8
232.758	1922.8
238.719	1924.8
244.674	1901.8
250.623	1866.8
256.565	1858.8
262.5	1820.8
268.429	1825.8
274.351	1793.8
280.267	1771.8
286.176	1777.8
292.079	1765.8
297.975	1769.8
303.865	1738.8
309.748	1742.8
315.625	1750.8
321.495	1734.8
327.359	1767.8
333.217	1736.8
339.068	1741.8
344.912	1759.8
350.751	1749.8
356.583	1745.8
362.408	1730.8
368.227	1747.8
374.04	1766.8
379.847	1753.8
385.647	1768.8
391.44	1795.8
397.228	1777.8
403.009	1792.8
408.784	1803.8
414.553	1806.8
420.315	1814.8
426.071	1832.8
431.821	1826.8
437.565	1812.8
443.302	1784.8
449.033	1796.8
454.758	1793.8
460.477	1785.8
466.189	1754.8
471.896	1768.8
477.596	1748.8
483.29	1730.8
488.978	1713.8
494.66	1740.8
500.335	1714.8
506.005	1647.8
511.668	1595.8
517.325	1558.8
522.977	1517.8
528.622	1477.8
534.261	1458.8
539.894	1442.8
545.521	1436.8
551.141	1425.8
556.756	1423.8
562.365	1399.8
567.968	1400.8
573.565	1372.8
579.155	1378.8
584.74	1380.8
590.319	1384.8
595.892	1376.8
601.459	1376.8
607.02	1353.8
612.575	1351.8
618.124	1340.8
623.667	1328.8
629.204	1312.8
634.735	1288.8
640.261	1283.8
645.781	1290.8
651.294	1278.8
656.802	1272.8
662.304	1268.8
667.8	1262.8
673.29	1266.8
678.775	1283.8
684.254	1280.8
689.726	1233.8
695.193	1254.8
700.655	1234.8
706.11	1251.8
711.56	1236.8
717.004	1212.8
722.442	1199.8
727.874	1198.8
733.301	1198.8
738.722	1193.8
744.137	1182.8
749.547	1193.8
754.951	1187.8
760.349	1190.8
765.741	1185.8
771.128	1207.8
776.509	1198.8
781.885	1227.8
787.254	1216.8
792.618	1210.8
797.977	1211.8
803.33	1191.8
808.677	1188.8
814.019	1179.8
819.355	1170.8
824.686	1168.8
830.011	1154.8
835.33	1147.8
840.644	1162.8
845.952	1156.8
851.255	1161.8
856.552	1152.8
861.844	1133.8
867.13	1128.8
872.41	1122.8
877.686	1119.8
882.955	1103.8
888.219	1112.8
893.478	1091.8
898.731	1076.8
903.979	1065.8
909.221	1063.8
914.458	1046.8
919.69	1047.8
924.916	1035.8
930.136	1044.8
935.351	1049.8
940.561	1052.8
945.766	1068.8
950.965	1043.8
956.158	1047.8
961.347	1030.8
966.529	1019.8
971.707	997.8
976.879	974.8
982.046	976.8
987.208	983.8
992.364	983.8
997.515	973.8
1002.66	975.8
1007.801	993.8
1012.936	1011.8
1018.066	1010.8
1023.19	1003.8
1028.309	1003.8
1033.423	1005.8
1038.532	993.8
1043.636	995.8
1048.734	995.8
1053.827	960.8
1058.915	953.8
1063.998	957.8
1069.075	942.8
1074.147	935.8
1079.214	949.8
1084.276	946.8
1089.333	959.8
1094.385	968.8
1099.431	946.8
1104.472	967.8
1109.509	938.8
1114.54	943.8
1119.565	926.8
1124.586	907.8
1129.602	913.8
1134.613	941.8
1139.618	913.8
1144.619	886.8
1149.614	892.8
1154.604	869.8
1159.589	903.8
1164.57	886.8
1169.545	891.8
1174.515	891.8
1179.48	894.8
1184.44	891.8
1189.395	892.8
1194.345	879.8
1199.29	857.8
1204.23	869.8
1209.165	867.8
1214.095	868.8
1219.021	877.8
1223.941	889.8
1228.856	887.8
1233.766	896.8
1238.672	878.8
1243.572	892.8
1248.467	898.8
1253.358	869.8
1258.244	853.8
1263.124	837.8
1268	832.8
1272.871	821.8
1277.737	819.8
1282.599	815.8
1287.455	812.8
1292.306	805.8
1297.153	808.8
1301.995	826.8
1306.832	826.8
1311.664	817.8
1316.491	844.8
1321.314	823.8
1326.132	828.8
1330.945	810.8
1335.753	780.8
1340.556	776.8
1345.354	772.8
1350.148	760.8
1354.937	748.8
1359.722	717.8
1364.501	710.8
1369.276	697.8
1374.046	664.8
1378.811	663.8
1383.572	667.8
1388.327	669.8
1393.079	670.8
1397.825	668.8
1402.567	664.8
1407.304	668.8
1412.036	682.8
1416.764	677.8
1421.487	681.8
1426.205	679.8
1430.919	670.8
1435.628	691.8
1440.333	706.8
1445.032	706.8
1449.727	716.8
1454.418	707.8
1459.104	704.8
1463.785	695.8
1468.462	680.8
1473.134	670.8
1477.802	643.8
1482.465	631.8
1487.123	626.8
1491.777	614.8
1496.426	598.8
1501.071	592.8
1505.711	579.8
1510.347	573.8
1514.978	585.8
1519.604	572.8
1524.226	573.8
1528.844	573.8
1533.457	556.8
1538.065	553.8
1542.669	567.8
1547.269	550.8
1551.864	565.8
1556.454	573.8
1561.041	576.8
1565.622	588.8
1570.199	599.8
1574.772	591.8
1579.34	603.8
1583.904	604.8
1588.464	624.8
1593.019	623.8
1597.569	625.8
1602.115	624.8
1606.657	623.8
1611.195	613.8
1615.728	618.8
1620.256	623.8
1624.78	618.8
1629.3	617.8
1633.816	614.8
1638.327	631.8
1642.834	611.8
1647.336	612.8
1651.834	614.8
1656.328	615.8
1660.817	608.8
1665.302	602.8
1669.783	592.8
1674.259	583.8
1678.732	559.8
1683.199	536.8
1687.663	523.8
1692.122	492.8
1696.577	475.8
1701.028	455.8
1705.474	429.8
1709.917	416.8
1714.355	413.8
1718.788	409.8
1723.218	414.8
1727.643	407.8
1732.064	422.8
1736.481	413.8
1740.893	391.8
1745.301	382.8
1749.705	384.8
1754.105	373.8
1758.501	363.8
1762.893	359.8
1767.28	351.8
1771.663	349.8
1776.042	341.8
1780.417	345.8
1784.787	332.8
1789.154	323.8
1793.516	320.8
1797.874	307.8
1802.228	311.8
1806.578	301.8
1810.924	299.8
1815.266	287.8
1819.603	290.8
1823.937	302.8
1828.266	306.8
1832.591	311.8
1836.913	292.8
1841.23	313.8
1845.543	306.8
1849.852	303.8
1854.156	320.8
1858.457	311.8
1862.754	308.8
1867.047	320.8
1871.335	313.8
1875.62	310.8
1879.9	319.8
1884.177	304.8
1888.449	301.8
1892.718	306.8
1896.982	293.8
1901.243	280.8
1905.499	278.8
1909.752	276.8
1914	270.8
1918.245	268.8
1922.485	258.8
1926.722	254.8
1930.954	253.8
1935.183	254.8
1939.408	249.8
1943.628	246.8
1947.845	250.8
1952.058	244.8
1956.267	228.8
1960.472	238.8
1964.673	226.8
1968.87	225.8
1973.063	236.8
1977.252	228.8
1981.438	237.8
1985.619	229.8
1989.797	237.8
1993.971	236.8
1998.14	244.8
2002.306	244.8
2006.469	242.8
2010.627	236.8
2014.781	240.8
2018.932	249.8
2023.078	243.8
2027.221	239.8
2031.36	238.8
2035.495	235.8
2039.627	221.8
2043.754	232.8
2047.878	224.8
2051.998	222.8
2056.114	215.8
2060.226	209.8
2064.334	215.8
2068.439	209.8
2072.54	213.8
2076.637	217.8
2080.73	209.8
2084.82	207.8
2088.906	202.8
2092.988	202.8
2097.066	197.8
2101.14	203.8
2105.211	199.8
2109.278	193.8
2113.342	179.8
2117.401	190.8
2121.457	187.8
2125.509	187.8
2129.558	175.8
2133.602	186.8
2137.643	177.8
2141.681	186.8
2145.714	190.8
2149.744	188.8
2153.77	190.8
2157.793	192.8
2161.812	194.8
2165.827	188.8
2169.838	180.8
2173.846	179.8
2177.851	173.8
2181.851	178.8
2185.848	180.8
2189.841	178.8
2193.831	171.8
2197.817	180.8
2201.799	172.8
2205.778	169.8
2209.753	174.8
2213.725	170.8
2217.693	182.8
2221.657	175.8
2225.618	169.8
2229.575	162.8
2233.529	167.8
2237.479	171.8
2241.425	159.8
2245.368	165.8
2249.307	165.8
2253.243	151.8
2257.175	158.8
2261.104	151.8
2265.029	155.8
2268.95	156.8
2272.868	146.8
2276.783	146.8
2280.694	138.8
2284.601	139.8
2288.505	149.8
2292.405	152.8
2296.302	145.8
2300.195	139.8
2304.085	138.8
2307.971	136.8
2311.854	132.8
2315.734	130.8
2319.609	136.8
2323.482	122.8
2327.351	130.8
2331.216	135.8
2335.078	145.8
2338.937	141.8
2342.792	133.8
2346.643	127.8
2350.492	135.8
2354.336	129.8
2358.178	128.8
2362.015	132.8
2365.85	130.8
2369.681	139.8
2373.508	142.8
2377.333	131.8
2381.153	137.8
2384.971	133.8
2388.785	133.8
2392.595	128.8
2396.402	136.8
2400.206	136.8
2404.007	132.8
2407.804	122.8
2411.597	128.8
2415.388	124.8
2419.174	131.8
2422.958	120.8
2426.738	132.8
2430.515	124.8
2434.289	131.8
2438.059	125.8
2441.825	120.8
2445.589	121.8
2449.349	116.8
2453.106	121.8
2456.859	113.8
2460.61	120.8
2464.356	112.8
2468.1	112.8
2471.84	115.8
2475.577	107.8
2479.311	109.8
2483.041	119.8
2486.768	108.8
2490.492	109.8
2494.213	101.8
2497.93	99.8
2501.644	100.8
2505.355	102.8
2509.062	102.8
2512.766	97.8
2516.467	102.8
2520.165	95.8
2523.859	102.8
2527.551	97.8
2531.239	96.8
2534.923	90.8
2538.605	93.8
2542.283	89.8
2545.958	84.8
2549.63	94.8
2553.299	88.8
2556.964	82.8
2560.626	76.8
2564.285	81.8
2567.941	82.8
2571.594	77.8
2575.243	71.8
2578.89	77.8
2582.533	71.8
2586.173	71.8
2589.809	80.8
2593.443	81.8
2597.073	70.8
2600.701	78.8
2604.325	67.8
2607.946	61.8
2611.564	76.8
2615.178	65.8
2618.79	67.8
2622.398	67.8
2626.004	69.8
2629.606	63.8
2633.205	60.8
2636.801	61.8
2640.394	71.8
2643.983	65.8
2647.57	67.8
2651.153	57.8
2654.734	56.8
2658.311	61.8
2661.885	63.8
2665.456	61.8
2669.025	59.8
2672.589	59.8
2676.151	55.8
2679.71	56.8
2683.266	53.8
2686.819	64.8
2690.368	59.8
2693.915	57.8
2697.458	56.8
2700.999	59.8
2704.536	52.8
2708.071	56.8
2711.602	47.8
2715.13	51.8
2718.656	51.8
2722.178	47.8
2725.697	44.8
2729.214	43.8
2732.727	46.8
2736.237	38.8
2739.744	35.8
2743.249	38.8
2746.75	42.8
2750.248	37.8
2753.743	33.8
2757.236	33.8
2760.725	33.8
2764.211	36.8
2767.695	29.8
2771.175	32.8
2774.652	30.8
2778.127	34.8
2781.598	28.8
2785.067	22.8
2788.532	28.8
2791.995	34.8
2795.455	28.8
2798.911	32.8
2802.365	32.8
2805.816	28.8
2809.264	33.8
2812.709	32.8
2816.151	31.8
2819.59	41.8
2823.026	40.8
2826.46	37.8
2829.89	34.8
2833.318	31.8
2836.742	44.8
2840.164	29.8
2843.583	35.8
2846.999	41.8
2850.412	41.8
2853.822	33.8
2857.229	40.8
2860.634	35.8
2864.035	40.8
2867.434	42.8
2870.83	42.8
2874.223	36.8
2877.613	38.8
2881	47.8
2884.385	49.8
2887.766	42.8
2891.145	48.8
2894.521	47.8
2897.894	49.8
2901.264	47.8
2904.631	36.8
2907.996	53.8
2911.358	51.8
2914.717	45.8
2918.073	52.8
2921.426	49.8
2924.777	54.8
2928.124	52.8
2931.469	55.8
2934.811	64.8
2938.15	57.8
2941.487	72.8
2944.821	64.8
2948.152	61.8
2951.48	64.8
2954.805	58.8
2958.128	58.8
2961.447	52.8
2964.765	59.8
2968.079	48.8
2971.39	55.8
2974.699	57.8
2978.005	58.8
2981.308	57.8
2984.609	52.8
2987.907	56.8
2991.202	64.8
2994.494	53.8
2997.784	52.8
3001.07	61.8
3004.355	62.8
3007.636	63.8
3010.915	61.8
3014.191	64.8
3017.464	60.8
3020.734	66.8
3024.002	67.8
3027.267	72.8
3030.53	70.8
3033.789	59.8
3037.046	66.8
3040.301	66.8
3043.552	70.8
3046.801	76.8
3050.048	75.8
3053.291	83.8
3056.532	83.8
3059.771	92.8
3063.006	96.8
3066.239	97.8
3069.469	109.8
3072.697	106.8
3075.922	102.8
3079.144	111.8
3082.364	107.8
3085.581	109.8
3088.795	124.8
3092.007	126.8
3095.216	131.8
3098.423	120.8
3101.627	124.8
3104.828	133.8
3108.026	129.8
3111.222	138.8
3114.416	142.8
3117.607	144.8
3120.795	143.8
3123.98	156.8
3127.163	163.8
3130.344	163.8
3133.521	161.8
3136.696	163.8
3139.869	167.8
3143.039	169.8
3146.206	173.8
3149.371	172.8
3152.533	191.8
3155.693	184.8
3158.85	183.8
3162.005	183.8
3165.157	172.8
3168.306	177.8
3171.453	193.8
3174.597	178.8
3177.739	185.8
3180.878	182.8
3184.014	176.8
3187.149	181.8
3190.28	180.8
3193.409	184.8
3196.536	178.8
3199.659	190.8
3202.781	182.8
3205.9	180.8
3209.016	181.8
3212.13	179.8
3215.241	180.8
3218.35	179.8
3221.456	186.8
3224.56	170.8
3227.661	172.8
3230.76	164.8
3233.856	173.8
3236.95	165.8
3240.041	158.8
3243.13	168.8
3246.216	153.8
3249.3	154.8
3252.382	155.8
3255.46	161.8
3258.537	149.8
3261.611	144.8
3264.682	152.8
3267.751	145.8
3270.818	134.8
3273.882	136.8
3276.943	138.8
3280.002	135.8
3283.059	133.8
3286.113	131.8
3289.165	134.8
3292.214	135.8
3295.261	137.8
3298.306	131.8
3301.348	135.8
3304.387	130.8
3307.425	124.8
3310.459	123.8
3313.492	129.8
3316.521	128.8
3319.549	129.8
3322.574	120.8
3325.597	122.8
3328.617	122.8
3331.635	126.8
3334.65	134.8
3337.663	113.8
3340.674	120.8
3343.682	116.8
3346.688	121.8
3349.691	132.8
3352.692	119.8
3355.691	132.8
3358.687	130.8
3361.681	124.8
3364.673	128.8
3367.662	119.8
3370.649	123.8
3373.633	112.8
3376.615	117.8
3379.595	111.8
3382.572	104.8
3385.547	115.8
3388.52	103.8
3391.49	102.8
3394.458	95.8
3397.424	104.8
3400.387	103.8
3403.348	92.8
3406.307	89.8
3409.263	86.8
3412.217	92.8
3415.168	88.8
3418.118	91.8
3421.065	86.8
3424.009	83.8
3426.951	82.8
3429.891	86.8
3432.829	81.8
3435.764	89.8
3438.697	81.8
3441.628	67.8
3444.557	72.8
3447.483	70.8
3450.407	64.8
3453.328	62.8
3456.247	65.8
3459.164	55.8
3462.079	48.8
3464.991	50.8
3467.902	41.8
3470.809	42.8
3473.715	41.8
3476.618	38.8
3479.519	36.8
3482.418	29.8
3485.315	28.8
3488.209	23.8
3491.101	23.8
3493.99	32.8
3496.878	21.8
3499.763	16.8
3502.646	18.8
3505.527	20.8
3508.405	17.8
3511.281	17.8
3514.155	13.8
3517.027	11.8
3519.897	15.8
3522.764	3.8
3525.629	1.8
3528.492	2.8
3531.352	-1.2
3534.211	-4.2
3537.067	-7.2
3539.921	-1.2
3542.773	-13.2
3545.622	-11.2
3548.469	-11.2
3551.315	-10.2
3554.157	-12.2
3556.998	-11.2
3559.837	-19.2
3562.673	-18.2
3565.507	-16.2
3568.339	-16.2
3571.169	-21.2
3573.996	-16.2
3576.822	-21.2
3579.645	-25.2
3582.466	-17.2
3585.285	-19.2
3588.101	-19.2
3590.916	-19.2
3593.728	-27.2
3596.538	-29.2
3599.346	-25.2
3602.152	-26.2
3604.956	-24.2
3607.757	-25.2
3610.556	-34.2
3613.354	-34.2
3616.149	-32.2
3618.942	-34.2
3621.732	-34.2
3624.521	-32.2
3627.307	-35.2
3630.092	-37.2
3632.874	-35.2
3635.654	-34.2
3638.432	-34.2
3641.208	-32.2
3643.982	-28.2
3646.753	-36.2
3649.523	-34.2
3652.29	-39.2
3655.055	-31.2
3657.818	-42.2
3660.579	-34.2
3663.338	-37.2
3666.095	-38.2
3668.849	-40.2
3671.602	-39.2
3674.352	-41.2
3677.101	-40.2
3679.847	-40.2
3682.591	-47.2
3685.333	-40.2
3688.073	-47.2
3690.811	-45.2
3693.547	-45.2
3696.281	-42.2
3699.013	-40.2
3701.742	-49.2
3704.47	-41.2
3707.195	-43.2
3709.919	-43.2
3712.64	-45.2
3715.359	-48.2
3718.076	-44.2
3720.792	-48.2
3723.505	-45.2
3726.216	-40.2
3728.925	-49.2
3731.632	-48.2
3734.336	-50.2
3737.039	-46.2
3739.74	-49.2
3742.439	-55.2
3745.136	-47.2
3747.83	-43.2
3750.523	-48.2
3753.213	-45.2
3755.902	-49.2
3758.589	-46.2
3761.273	-46.2
3763.956	-46.2
3766.636	-41.2
3769.315	-40.2
3771.991	-44.2
3774.665	-48.2
3777.338	-44.2
3780.008	-44.2
3782.677	-50.2
3785.343	-51.2
3788.007	-53.2
3790.67	-52.2
3793.33	-46.2
3795.989	-54.2
3798.645	-51.2
3801.299	-47.2
3803.952	-52.2
3806.602	-51.2
3809.251	-58.2
3811.897	-55.2
3814.542	-55.2
3817.184	-49.2
3819.825	-45.2
3822.463	-50.2
3825.1	-44.2
3827.735	-57.2
3830.367	-49.2
3832.998	-48.2
3835.627	-47.2
3838.253	-42.2
3840.878	-47.2
3843.501	-44.2
3846.122	-58.2
3848.741	-49.2
3851.358	-53.2
3853.973	-48.2
3856.586	-48.2
3859.197	-52.2
3861.806	-55.2
3864.414	-50.2
3867.019	-52.2
3869.622	-38.2
3872.224	-39.2
3874.823	-27.2
3877.421	-30.2
3880.016	-9.2
3882.61	4.8
3885.202	-1.2
3887.792	-9.2
3890.38	-24.2
3892.966	-42.2
3895.55	-48.2
3898.132	-49.2
3900.713	-47.2
3903.291	-53.2
3905.868	-52.2
3908.442	-51.2
3911.015	-54.2
3913.586	-56.2
3916.155	-47.2
3918.722	-52.2
3921.287	-52.2
3923.85	-42.2
3926.411	-51.2
3928.971	-62.2
3931.528	-48.2
3934.084	-50.2
3936.638	-42.2
3939.19	-53.2
3941.74	-46.2
3944.288	-52.2
3946.834	-48.2
3949.378	-49.2
3951.921	-53.2
3954.462	-52.2
3957	-42.2
3959.537	-41.2
3962.072	-46.2
3964.606	-52.2
3967.137	-50.2
3969.667	-53.2
3972.194	-51.2
3974.72	-45.2
3977.244	-44.2
3979.766	-51.2
3982.286	-56.2
3984.805	-57.2
3987.321	-49.2
3989.836	-45.2
3992.349	-52.2
3994.86	-51.2
3997.369	-51.2
3999.877	-47.2
4002.382	-48.2
4004.886	-43.2
4007.388	-48.2
4009.888	-52.2
4012.386	-51.2
4014.883	-50.2
4017.377	-43.2
4019.87	-52.2
4022.361	-54.2
4024.85	-49.2
4027.338	-58.2
4029.823	-53.2
4032.307	-53.2
4034.789	-46.2
4037.269	-50.2
4039.747	-45.2
4042.224	-52.2
4044.699	-49.2
4047.172	-53.2
4049.643	-49.2
4052.112	-52.2
4054.58	-51.2
4057.046	-41.2
4059.51	-49.2
4061.972	-52.2
4064.432	-48.2
4066.891	-44.2
4069.348	-49.2
4071.803	-45.2
4074.256	-50.2
4076.708	-51.2
4079.158	-58.2
4081.606	-50.2
4084.052	-54.2
4086.497	-44.2
4088.939	-51.2
4091.38	-55.2
4093.819	-54.2
4096.257	-55.2
4098.693	-52.2
4101.127	-47.2
4103.559	-56.2
4105.989	5.8
4108.418	-1.2
4110.845	-3.2
4113.27	3.8
4115.694	6.8
4118.115	6.8
4120.535	-47.2
4122.954	-45.2
4125.37	-48.2
4127.785	-45.2
4130.198	-46.2
4132.609	-55.2
4135.019	-53.2
4137.427	-55.2
4139.833	-53.2
4142.237	-55.2
