Data from 2018-3-7_conc=0_n=3_RamanShift_01.txt Node
Date: Wed Mar 07 10:11:23 IST 2018
User: aro
Spectrometer: QEPB0276
Trigger mode: 0
Integration Time (sec): 3.000000E1
Scans to average: 1
Electric dark correction enabled: true
Nonlinearity correction enabled: false
Boxcar width: 0
XAxis mode: Raman Shifts
Number of Pixels in Spectrum: 1044
>>>>>Begin Spectral Data<<<<<
160.701	12.9
166.742	27.9
172.777	62.9
178.805	189.9
184.826	494.9
190.841	1032.9
196.849	1747.9
202.85	2280.9
208.845	2511.9
214.833	2514.9
220.815	2506.9
226.789	2486.9
232.758	2509.9
238.719	2519.9
244.674	2520.9
250.623	2496.9
256.565	2466.9
262.5	2457.9
268.429	2431.9
274.351	2414.9
280.267	2391.9
286.176	2401.9
292.079	2419.9
297.975	2412.9
303.865	2407.9
309.748	2380.9
315.625	2403.9
321.495	2417.9
327.359	2405.9
333.217	2431.9
339.068	2409.9
344.912	2429.9
350.751	2442.9
356.583	2446.9
362.408	2463.9
368.227	2457.9
374.04	2504.9
379.847	2503.9
385.647	2494.9
391.44	2516.9
397.228	2519.9
403.009	2545.9
408.784	2580.9
414.553	2591.9
420.315	2598.9
426.071	2595.9
431.821	2594.9
437.565	2602.9
443.302	2614.9
449.033	2601.9
454.758	2586.9
460.477	2547.9
466.189	2528.9
471.896	2517.9
477.596	2477.9
483.29	2450.9
488.978	2448.9
494.66	2459.9
500.335	2402.9
506.005	2313.9
511.668	2200.9
517.325	2087.9
522.977	2018.9
528.622	1953.9
534.261	1931.9
539.894	1892.9
545.521	1848.9
551.141	1837.9
556.756	1820.9
562.365	1806.9
567.968	1766.9
573.565	1774.9
579.155	1766.9
584.74	1753.9
590.319	1740.9
595.892	1731.9
601.459	1735.9
607.02	1728.9
612.575	1719.9
618.124	1710.9
623.667	1693.9
629.204	1654.9
634.735	1633.9
640.261	1623.9
645.781	1616.9
651.294	1612.9
656.802	1592.9
662.304	1586.9
667.8	1594.9
673.29	1595.9
678.775	1577.9
684.254	1589.9
689.726	1564.9
695.193	1554.9
700.655	1572.9
706.11	1538.9
711.56	1528.9
717.004	1529.9
722.442	1505.9
727.874	1513.9
733.301	1501.9
738.722	1495.9
744.137	1499.9
749.547	1497.9
754.951	1492.9
760.349	1502.9
765.741	1498.9
771.128	1503.9
776.509	1512.9
781.885	1543.9
787.254	1552.9
792.618	1571.9
797.977	1553.9
803.33	1555.9
808.677	1548.9
814.019	1532.9
819.355	1523.9
824.686	1501.9
830.011	1493.9
835.33	1490.9
840.644	1482.9
845.952	1485.9
851.255	1488.9
856.552	1481.9
861.844	1483.9
867.13	1476.9
872.41	1543.9
877.686	1638.9
882.955	1707.9
888.219	1694.9
893.478	1617.9
898.731	1454.9
903.979	1388.9
909.221	1348.9
914.458	1329.9
919.69	1336.9
924.916	1329.9
930.136	1335.9
935.351	1312.9
940.561	1324.9
945.766	1316.9
950.965	1320.9
956.158	1302.9
961.347	1288.9
966.529	1265.9
971.707	1247.9
976.879	1232.9
982.046	1230.9
987.208	1231.9
992.364	1216.9
997.515	1215.9
1002.66	1228.9
1007.801	1247.9
1012.936	1273.9
1018.066	1285.9
1023.19	1291.9
1028.309	1306.9
1033.423	1288.9
1038.532	1304.9
1043.636	1308.9
1048.734	1346.9
1053.827	1345.9
1058.915	1303.9
1063.998	1265.9
1069.075	1245.9
1074.147	1246.9
1079.214	1269.9
1084.276	1291.9
1089.333	1321.9
1094.385	1323.9
1099.431	1294.9
1104.472	1266.9
1109.509	1223.9
1114.54	1204.9
1119.565	1193.9
1124.586	1150.9
1129.602	1157.9
1134.613	1149.9
1139.618	1119.9
1144.619	1112.9
1149.614	1134.9
1154.604	1117.9
1159.589	1123.9
1164.57	1125.9
1169.545	1117.9
1174.515	1117.9
1179.48	1105.9
1184.44	1110.9
1189.395	1113.9
1194.345	1104.9
1199.29	1083.9
1204.23	1086.9
1209.165	1074.9
1214.095	1090.9
1219.021	1088.9
1223.941	1103.9
1228.856	1118.9
1233.766	1114.9
1238.672	1107.9
1243.572	1105.9
1248.467	1094.9
1253.358	1094.9
1258.244	1078.9
1263.124	1055.9
1268	1057.9
1272.871	1043.9
1277.737	1049.9
1282.599	1058.9
1287.455	1035.9
1292.306	1036.9
1297.153	1043.9
1301.995	1036.9
1306.832	1045.9
1311.664	1043.9
1316.491	1033.9
1321.314	1038.9
1326.132	1028.9
1330.945	1008.9
1335.753	994.9
1340.556	965.9
1345.354	924.9
1350.148	918.9
1354.937	904.9
1359.722	881.9
1364.501	861.9
1369.276	846.9
1374.046	838.9
1378.811	835.9
1383.572	827.9
1388.327	825.9
1393.079	830.9
1397.825	843.9
1402.567	864.9
1407.304	861.9
1412.036	858.9
1416.764	878.9
1421.487	863.9
1426.205	878.9
1430.919	891.9
1435.628	896.9
1440.333	897.9
1445.032	909.9
1449.727	961.9
1454.418	985.9
1459.104	1016.9
1463.785	991.9
1468.462	929.9
1473.134	891.9
1477.802	824.9
1482.465	807.9
1487.123	776.9
1491.777	761.9
1496.426	749.9
1501.071	718.9
1505.711	710.9
1510.347	701.9
1514.978	680.9
1519.604	670.9
1524.226	688.9
1528.844	676.9
1533.457	671.9
1538.065	683.9
1542.669	666.9
1547.269	660.9
1551.864	680.9
1556.454	697.9
1561.041	697.9
1565.622	712.9
1570.199	713.9
1574.772	718.9
1579.34	736.9
1583.904	740.9
1588.464	740.9
1593.019	748.9
1597.569	744.9
1602.115	748.9
1606.657	743.9
1611.195	741.9
1615.728	727.9
1620.256	729.9
1624.78	717.9
1629.3	730.9
1633.816	726.9
1638.327	738.9
1642.834	728.9
1647.336	722.9
1651.834	717.9
1656.328	723.9
1660.817	705.9
1665.302	697.9
1669.783	680.9
1674.259	661.9
1678.732	646.9
1683.199	621.9
1687.663	591.9
1692.122	551.9
1696.577	532.9
1701.028	514.9
1705.474	466.9
1709.917	465.9
1714.355	449.9
1718.788	453.9
1723.218	463.9
1727.643	467.9
1732.064	455.9
1736.481	468.9
1740.893	440.9
1745.301	455.9
1749.705	432.9
1754.105	410.9
1758.501	413.9
1762.893	410.9
1767.28	400.9
1771.663	389.9
1776.042	379.9
1780.417	380.9
1784.787	363.9
1789.154	352.9
1793.516	338.9
1797.874	334.9
1802.228	332.9
1806.578	326.9
1810.924	321.9
1815.266	321.9
1819.603	323.9
1823.937	334.9
1828.266	337.9
1832.591	352.9
1836.913	357.9
1841.23	337.9
1845.543	354.9
1849.852	351.9
1854.156	353.9
1858.457	351.9
1862.754	350.9
1867.047	346.9
1871.335	343.9
1875.62	340.9
1879.9	348.9
1884.177	332.9
1888.449	327.9
1892.718	324.9
1896.982	312.9
1901.243	293.9
1905.499	294.9
1909.752	285.9
1914	287.9
1918.245	275.9
1922.485	272.9
1926.722	265.9
1930.954	264.9
1935.183	252.9
1939.408	254.9
1943.628	244.9
1947.845	252.9
1952.058	242.9
1956.267	236.9
1960.472	247.9
1964.673	236.9
1968.87	241.9
1973.063	255.9
1977.252	251.9
1981.438	249.9
1985.619	254.9
1989.797	256.9
1993.971	252.9
1998.14	258.9
2002.306	256.9
2006.469	263.9
2010.627	258.9
2014.781	266.9
2018.932	254.9
2023.078	264.9
2027.221	267.9
2031.36	252.9
2035.495	250.9
2039.627	236.9
2043.754	244.9
2047.878	248.9
2051.998	242.9
2056.114	239.9
2060.226	228.9
2064.334	224.9
2068.439	217.9
2072.54	218.9
2076.637	217.9
2080.73	215.9
2084.82	215.9
2088.906	209.9
2092.988	214.9
2097.066	200.9
2101.14	212.9
2105.211	197.9
2109.278	200.9
2113.342	194.9
2117.401	188.9
2121.457	186.9
2125.509	189.9
2129.558	194.9
2133.602	191.9
2137.643	195.9
2141.681	189.9
2145.714	208.9
2149.744	193.9
2153.77	202.9
2157.793	200.9
2161.812	210.9
2165.827	209.9
2169.838	191.9
2173.846	197.9
2177.851	199.9
2181.851	194.9
2185.848	182.9
2189.841	188.9
2193.831	180.9
2197.817	186.9
2201.799	191.9
2205.778	191.9
2209.753	186.9
2213.725	182.9
2217.693	180.9
2221.657	195.9
2225.618	180.9
2229.575	177.9
2233.529	180.9
2237.479	184.9
2241.425	175.9
2245.368	179.9
2249.307	181.9
2253.243	177.9
2257.175	167.9
2261.104	166.9
2265.029	161.9
2268.95	173.9
2272.868	169.9
2276.783	167.9
2280.694	160.9
2284.601	154.9
2288.505	163.9
2292.405	165.9
2296.302	157.9
2300.195	160.9
2304.085	155.9
2307.971	154.9
2311.854	144.9
2315.734	150.9
2319.609	151.9
2323.482	150.9
2327.351	151.9
2331.216	171.9
2335.078	186.9
2338.937	173.9
2342.792	167.9
2346.643	155.9
2350.492	154.9
2354.336	156.9
2358.178	148.9
2362.015	155.9
2365.85	149.9
2369.681	161.9
2373.508	165.9
2377.333	160.9
2381.153	152.9
2384.971	152.9
2388.785	148.9
2392.595	153.9
2396.402	162.9
2400.206	154.9
2404.007	148.9
2407.804	153.9
2411.597	150.9
2415.388	149.9
2419.174	156.9
2422.958	147.9
2426.738	154.9
2430.515	152.9
2434.289	140.9
2438.059	140.9
2441.825	138.9
2445.589	140.9
2449.349	135.9
2453.106	137.9
2456.859	137.9
2460.61	130.9
2464.356	129.9
2468.1	127.9
2471.84	131.9
2475.577	122.9
2479.311	121.9
2483.041	127.9
2486.768	126.9
2490.492	125.9
2494.213	121.9
2497.93	121.9
2501.644	124.9
2505.355	106.9
2509.062	112.9
2512.766	106.9
2516.467	107.9
2520.165	113.9
2523.859	113.9
2527.551	100.9
2531.239	103.9
2534.923	91.9
2538.605	90.9
2542.283	93.9
2545.958	97.9
2549.63	96.9
2553.299	91.9
2556.964	86.9
2560.626	84.9
2564.285	88.9
2567.941	85.9
2571.594	79.9
2575.243	83.9
2578.89	79.9
2582.533	78.9
2586.173	83.9
2589.809	80.9
2593.443	86.9
2597.073	80.9
2600.701	85.9
2604.325	69.9
2607.946	70.9
2611.564	72.9
2615.178	76.9
2618.79	81.9
2622.398	79.9
2626.004	75.9
2629.606	85.9
2633.205	68.9
2636.801	74.9
2640.394	71.9
2643.983	70.9
2647.57	75.9
2651.153	64.9
2654.734	69.9
2658.311	68.9
2661.885	67.9
2665.456	70.9
2669.025	66.9
2672.589	60.9
2676.151	68.9
2679.71	62.9
2683.266	56.9
2686.819	63.9
2690.368	60.9
2693.915	63.9
2697.458	60.9
2700.999	65.9
2704.536	68.9
2708.071	62.9
2711.602	59.9
2715.13	49.9
2718.656	56.9
2722.178	60.9
2725.697	58.9
2729.214	48.9
2732.727	59.9
2736.237	55.9
2739.744	45.9
2743.249	44.9
2746.75	40.9
2750.248	43.9
2753.743	36.9
2757.236	46.9
2760.725	37.9
2764.211	30.9
2767.695	29.9
2771.175	29.9
2774.652	29.9
2778.127	32.9
2781.598	35.9
2785.067	32.9
2788.532	34.9
2791.995	35.9
2795.455	32.9
2798.911	35.9
2802.365	37.9
2805.816	34.9
2809.264	38.9
2812.709	41.9
2816.151	42.9
2819.59	44.9
2823.026	41.9
2826.46	46.9
2829.89	48.9
2833.318	47.9
2836.742	53.9
2840.164	44.9
2843.583	50.9
2846.999	64.9
2850.412	56.9
2853.822	60.9
2857.229	66.9
2860.634	60.9
2864.035	73.9
2867.434	70.9
2870.83	82.9
2874.223	83.9
2877.613	95.9
2881	116.9
2884.385	118.9
2887.766	126.9
2891.145	125.9
2894.521	130.9
2897.894	121.9
2901.264	121.9
2904.631	119.9
2907.996	123.9
2911.358	125.9
2914.717	117.9
2918.073	114.9
2921.426	124.9
2924.777	137.9
2928.124	152.9
2931.469	166.9
2934.811	175.9
2938.15	180.9
2941.487	195.9
2944.821	174.9
2948.152	174.9
2951.48	155.9
2954.805	146.9
2958.128	133.9
2961.447	132.9
2964.765	116.9
2968.079	114.9
2971.39	114.9
2974.699	111.9
2978.005	114.9
2981.308	109.9
2984.609	106.9
2987.907	113.9
2991.202	105.9
2994.494	101.9
2997.784	91.9
3001.07	93.9
3004.355	93.9
3007.636	87.9
3010.915	82.9
3014.191	71.9
3017.464	80.9
3020.734	84.9
3024.002	86.9
3027.267	84.9
3030.53	79.9
3033.789	88.9
3037.046	78.9
3040.301	76.9
3043.552	89.9
3046.801	96.9
3050.048	92.9
3053.291	98.9
3056.532	102.9
3059.771	98.9
3063.006	108.9
3066.239	118.9
3069.469	118.9
3072.697	121.9
3075.922	122.9
3079.144	118.9
3082.364	121.9
3085.581	127.9
3088.795	135.9
3092.007	139.9
3095.216	140.9
3098.423	140.9
3101.627	142.9
3104.828	149.9
3108.026	147.9
3111.222	150.9
3114.416	150.9
3117.607	157.9
3120.795	159.9
3123.98	162.9
3127.163	168.9
3130.344	180.9
3133.521	174.9
3136.696	184.9
3139.869	184.9
3143.039	192.9
3146.206	181.9
3149.371	194.9
3152.533	196.9
3155.693	196.9
3158.85	198.9
3162.005	198.9
3165.157	196.9
3168.306	199.9
3171.453	195.9
3174.597	192.9
3177.739	201.9
3180.878	207.9
3184.014	201.9
3187.149	196.9
3190.28	201.9
3193.409	203.9
3196.536	197.9
3199.659	199.9
3202.781	196.9
3205.9	204.9
3209.016	200.9
3212.13	201.9
3215.241	196.9
3218.35	186.9
3221.456	196.9
3224.56	187.9
3227.661	184.9
3230.76	178.9
3233.856	177.9
3236.95	163.9
3240.041	161.9
3243.13	167.9
3246.216	156.9
3249.3	153.9
3252.382	153.9
3255.46	156.9
3258.537	139.9
3261.611	142.9
3264.682	141.9
3267.751	143.9
3270.818	137.9
3273.882	144.9
3276.943	138.9
3280.002	140.9
3283.059	134.9
3286.113	136.9
3289.165	135.9
3292.214	137.9
3295.261	142.9
3298.306	136.9
3301.348	134.9
3304.387	126.9
3307.425	125.9
3310.459	131.9
3313.492	130.9
3316.521	133.9
3319.549	136.9
3322.574	132.9
3325.597	133.9
3328.617	124.9
3331.635	138.9
3334.65	135.9
3337.663	124.9
3340.674	129.9
3343.682	126.9
3346.688	125.9
3349.691	126.9
3352.692	127.9
3355.691	135.9
3358.687	123.9
3361.681	123.9
3364.673	122.9
3367.662	129.9
3370.649	122.9
3373.633	110.9
3376.615	109.9
3379.595	108.9
3382.572	102.9
3385.547	111.9
3388.52	113.9
3391.49	104.9
3394.458	95.9
3397.424	104.9
3400.387	95.9
3403.348	86.9
3406.307	92.9
3409.263	94.9
3412.217	90.9
3415.168	86.9
3418.118	83.9
3421.065	81.9
3424.009	80.9
3426.951	77.9
3429.891	75.9
3432.829	72.9
3435.764	72.9
3438.697	68.9
3441.628	63.9
3444.557	63.9
3447.483	61.9
3450.407	49.9
3453.328	55.9
3456.247	46.9
3459.164	43.9
3462.079	37.9
3464.991	36.9
3467.902	35.9
3470.809	30.9
3473.715	31.9
3476.618	32.9
3479.519	19.9
3482.418	10.9
3485.315	14.9
3488.209	8.9
3491.101	10.9
3493.99	13.9
3496.878	11.9
3499.763	-0.1
3502.646	3.9
3505.527	4.9
3508.405	-3.1
3511.281	-5.1
3514.155	-3.1
3517.027	-11.1
3519.897	-4.1
3522.764	-14.1
3525.629	-18.1
3528.492	-14.1
3531.352	-24.1
3534.211	-18.1
3537.067	-22.1
3539.921	-16.1
3542.773	-31.1
3545.622	-25.1
3548.469	-27.1
3551.315	-26.1
3554.157	-33.1
3556.998	-27.1
3559.837	-33.1
3562.673	-33.1
3565.507	-41.1
3568.339	-37.1
3571.169	-45.1
3573.996	-37.1
3576.822	-39.1
3579.645	-41.1
3582.466	-39.1
3585.285	-39.1
3588.101	-48.1
3590.916	-37.1
3593.728	-43.1
3596.538	-45.1
3599.346	-46.1
3602.152	-43.1
3604.956	-43.1
3607.757	-46.1
3610.556	-47.1
3613.354	-51.1
3616.149	-54.1
3618.942	-49.1
3621.732	-50.1
3624.521	-47.1
3627.307	-53.1
3630.092	-52.1
3632.874	-53.1
3635.654	-54.1
3638.432	-48.1
3641.208	-52.1
3643.982	-47.1
3646.753	-57.1
3649.523	-50.1
3652.29	-55.1
3655.055	-53.1
3657.818	-57.1
3660.579	-58.1
3663.338	-55.1
3666.095	-59.1
3668.849	-63.1
3671.602	-62.1
3674.352	-57.1
3677.101	-59.1
3679.847	-57.1
3682.591	-61.1
3685.333	-60.1
3688.073	-66.1
3690.811	-58.1
3693.547	-61.1
3696.281	-56.1
3699.013	-59.1
3701.742	-67.1
3704.47	-59.1
3707.195	-66.1
3709.919	-64.1
3712.64	-61.1
3715.359	-61.1
3718.076	-66.1
3720.792	-65.1
3723.505	-70.1
3726.216	-63.1
3728.925	-68.1
3731.632	-60.1
3734.336	-64.1
3737.039	-59.1
3739.74	-67.1
3742.439	-71.1
3745.136	-65.1
3747.83	-67.1
3750.523	-71.1
3753.213	-65.1
3755.902	-65.1
3758.589	-70.1
3761.273	-60.1
3763.956	-66.1
3766.636	-63.1
3769.315	-63.1
3771.991	-64.1
3774.665	-71.1
3777.338	-69.1
3780.008	-70.1
3782.677	-70.1
3785.343	-71.1
3788.007	-67.1
3790.67	-65.1
3793.33	-67.1
3795.989	-68.1
3798.645	-72.1
3801.299	-73.1
3803.952	-68.1
3806.602	-68.1
3809.251	-66.1
3811.897	-74.1
3814.542	-76.1
3817.184	-70.1
3819.825	-67.1
3822.463	-66.1
3825.1	-64.1
3827.735	-73.1
3830.367	-69.1
3832.998	-72.1
3835.627	-71.1
3838.253	-66.1
3840.878	-64.1
3843.501	-64.1
3846.122	-69.1
3848.741	-72.1
3851.358	-67.1
3853.973	-69.1
3856.586	-71.1
3859.197	-70.1
3861.806	-69.1
3864.414	-69.1
3867.019	-71.1
3869.622	-67.1
3872.224	-56.1
3874.823	-57.1
3877.421	-49.1
3880.016	-38.1
3882.61	-27.1
3885.202	-25.1
3887.792	-32.1
3890.38	-42.1
3892.966	-60.1
3895.55	-61.1
3898.132	-66.1
3900.713	-70.1
3903.291	-71.1
3905.868	-71.1
3908.442	-74.1
3911.015	-68.1
3913.586	-77.1
3916.155	-71.1
3918.722	-70.1
3921.287	-74.1
3923.85	-63.1
3926.411	-76.1
3928.971	-75.1
3931.528	-74.1
3934.084	-64.1
3936.638	-67.1
3939.19	-72.1
3941.74	-71.1
3944.288	-72.1
3946.834	-70.1
3949.378	-69.1
3951.921	-71.1
3954.462	-69.1
3957	-67.1
3959.537	-65.1
3962.072	-67.1
3964.606	-70.1
3967.137	-67.1
3969.667	-67.1
3972.194	-65.1
3974.72	-64.1
3977.244	-64.1
3979.766	-69.1
3982.286	-69.1
3984.805	-75.1
3987.321	-66.1
3989.836	-65.1
3992.349	-66.1
3994.86	-72.1
3997.369	-73.1
3999.877	-70.1
4002.382	-70.1
4004.886	-65.1
4007.388	-71.1
4009.888	-65.1
4012.386	-69.1
4014.883	-69.1
4017.377	-67.1
4019.87	-70.1
4022.361	-76.1
4024.85	-64.1
4027.338	-69.1
4029.823	-71.1
4032.307	-75.1
4034.789	-70.1
4037.269	-75.1
4039.747	-68.1
4042.224	-74.1
4044.699	-72.1
4047.172	-71.1
4049.643	-74.1
4052.112	-69.1
4054.58	-74.1
4057.046	-66.1
4059.51	-71.1
4061.972	-74.1
4064.432	-68.1
4066.891	-66.1
4069.348	-67.1
4071.803	-66.1
4074.256	-72.1
4076.708	-68.1
4079.158	-71.1
4081.606	-66.1
4084.052	-65.1
4086.497	-67.1
4088.939	-68.1
4091.38	-73.1
4093.819	-73.1
4096.257	-72.1
4098.693	-75.1
4101.127	-71.1
4103.559	-74.1
4105.989	15.9
4108.418	10.9
4110.845	3.9
4113.27	9.9
4115.694	3.9
4118.115	5.9
4120.535	-64.1
4122.954	-65.1
4125.37	-69.1
4127.785	-66.1
4130.198	-71.1
4132.609	-70.1
4135.019	-74.1
4137.427	-74.1
4139.833	-71.1
4142.237	-74.1
