Data from 2018-3-7_conc=5_n=8_RamanShift_02.txt Node
Date: Wed Mar 07 12:47:22 IST 2018
User: aro
Spectrometer: QEPB0276
Trigger mode: 0
Integration Time (sec): 3.000000E1
Scans to average: 1
Electric dark correction enabled: true
Nonlinearity correction enabled: false
Boxcar width: 0
XAxis mode: Raman Shifts
Number of Pixels in Spectrum: 1044
>>>>>Begin Spectral Data<<<<<
160.701	5
166.742	24
172.777	64
178.805	210
184.826	574
190.841	1231
196.849	2070
202.85	2737
208.845	2987
214.833	2996
220.815	2946
226.789	2923
232.758	2933
238.719	2895
244.674	2902
250.623	2852
256.565	2818
262.5	2784
268.429	2746
274.351	2714
280.267	2677
286.176	2665
292.079	2672
297.975	2638
303.865	2624
309.748	2627
315.625	2608
321.495	2591
327.359	2610
333.217	2618
339.068	2618
344.912	2624
350.751	2627
356.583	2582
362.408	2599
368.227	2624
374.04	2635
379.847	2633
385.647	2655
391.44	2637
397.228	2653
403.009	2671
408.784	2681
414.553	2699
420.315	2675
426.071	2698
431.821	2682
437.565	2679
443.302	2694
449.033	2690
454.758	2669
460.477	2672
466.189	2655
471.896	2619
477.596	2636
483.29	2623
488.978	2610
494.66	2615
500.335	2585
506.005	2514
511.668	2457
517.325	2388
522.977	2355
528.622	2313
534.261	2278
539.894	2272
545.521	2237
551.141	2235
556.756	2217
562.365	2198
567.968	2217
573.565	2191
579.155	2191
584.74	2157
590.319	2163
595.892	2166
601.459	2159
607.02	2144
612.575	2106
618.124	2122
623.667	2089
629.204	2065
634.735	2044
640.261	2045
645.781	2049
651.294	2032
656.802	2039
662.304	2025
667.8	2018
673.29	2022
678.775	1993
684.254	2010
689.726	2000
695.193	1971
700.655	1965
706.11	1967
711.56	1953
717.004	1929
722.442	1917
727.874	1919
733.301	1889
738.722	1898
744.137	1893
749.547	1895
754.951	1879
760.349	1886
765.741	1894
771.128	1893
776.509	1926
781.885	1915
787.254	1919
792.618	1899
797.977	1909
803.33	1882
808.677	1884
814.019	1868
819.355	1851
824.686	1856
830.011	1832
835.33	1843
840.644	1824
845.952	1835
851.255	1829
856.552	1843
861.844	1837
867.13	1808
872.41	1790
877.686	1791
882.955	1772
888.219	1770
893.478	1750
898.731	1716
903.979	1695
909.221	1684
914.458	1677
919.69	1700
924.916	1687
930.136	1689
935.351	1694
940.561	1689
945.766	1687
950.965	1685
956.158	1665
961.347	1638
966.529	1629
971.707	1600
976.879	1578
982.046	1560
987.208	1577
992.364	1571
997.515	1551
1002.66	1575
1007.801	1603
1012.936	1612
1018.066	1623
1023.19	1623
1028.309	1588
1033.423	1603
1038.532	1590
1043.636	1579
1048.734	1565
1053.827	1523
1058.915	1543
1063.998	1498
1069.075	1516
1074.147	1521
1079.214	1507
1084.276	1513
1089.333	1532
1094.385	1524
1099.431	1514
1104.472	1523
1109.509	1517
1114.54	1502
1119.565	1488
1124.586	1465
1129.602	1447
1134.613	1426
1139.618	1414
1144.619	1419
1149.614	1428
1154.604	1420
1159.589	1431
1164.57	1440
1169.545	1436
1174.515	1427
1179.48	1429
1184.44	1424
1189.395	1401
1194.345	1406
1199.29	1383
1204.23	1398
1209.165	1395
1214.095	1387
1219.021	1385
1223.941	1413
1228.856	1418
1233.766	1424
1238.672	1434
1243.572	1433
1248.467	1412
1253.358	1407
1258.244	1383
1263.124	1328
1268	1326
1272.871	1309
1277.737	1311
1282.599	1315
1287.455	1306
1292.306	1301
1297.153	1290
1301.995	1321
1306.832	1324
1311.664	1332
1316.491	1345
1321.314	1337
1326.132	1326
1330.945	1296
1335.753	1288
1340.556	1253
1345.354	1228
1350.148	1212
1354.937	1184
1359.722	1145
1364.501	1112
1369.276	1088
1374.046	1081
1378.811	1061
1383.572	1061
1388.327	1057
1393.079	1042
1397.825	1066
1402.567	1075
1407.304	1075
1412.036	1078
1416.764	1095
1421.487	1096
1426.205	1102
1430.919	1084
1435.628	1102
1440.333	1115
1445.032	1112
1449.727	1153
1454.418	1140
1459.104	1119
1463.785	1117
1468.462	1081
1473.134	1055
1477.802	1035
1482.465	1016
1487.123	1005
1491.777	965
1496.426	957
1501.071	942
1505.711	935
1510.347	919
1514.978	913
1519.604	899
1524.226	904
1528.844	889
1533.457	896
1538.065	884
1542.669	877
1547.269	883
1551.864	895
1556.454	899
1561.041	915
1565.622	936
1570.199	925
1574.772	953
1579.34	953
1583.904	962
1588.464	982
1593.019	981
1597.569	989
1602.115	998
1606.657	985
1611.195	994
1615.728	988
1620.256	972
1624.78	983
1629.3	981
1633.816	995
1638.327	1007
1642.834	992
1647.336	987
1651.834	983
1656.328	984
1660.817	974
1665.302	963
1669.783	939
1674.259	913
1678.732	895
1683.199	869
1687.663	831
1692.122	802
1696.577	746
1701.028	714
1705.474	667
1709.917	642
1714.355	642
1718.788	629
1723.218	646
1727.643	652
1732.064	634
1736.481	636
1740.893	626
1745.301	619
1749.705	601
1754.105	595
1758.501	574
1762.893	565
1767.28	556
1771.663	546
1776.042	550
1780.417	535
1784.787	528
1789.154	515
1793.516	497
1797.874	479
1802.228	475
1806.578	466
1810.924	468
1815.266	457
1819.603	454
1823.937	462
1828.266	471
1832.591	472
1836.913	478
1841.23	483
1845.543	480
1849.852	493
1854.156	496
1858.457	494
1862.754	494
1867.047	490
1871.335	491
1875.62	489
1879.9	478
1884.177	476
1888.449	468
1892.718	470
1896.982	463
1901.243	436
1905.499	441
1909.752	422
1914	429
1918.245	414
1922.485	401
1926.722	390
1930.954	385
1935.183	391
1939.408	388
1943.628	370
1947.845	374
1952.058	369
1956.267	354
1960.472	363
1964.673	354
1968.87	358
1973.063	347
1977.252	362
1981.438	365
1985.619	357
1989.797	361
1993.971	373
1998.14	376
2002.306	382
2006.469	382
2010.627	376
2014.781	380
2018.932	383
2023.078	381
2027.221	376
2031.36	378
2035.495	361
2039.627	350
2043.754	352
2047.878	351
2051.998	344
2056.114	343
2060.226	342
2064.334	335
2068.439	337
2072.54	336
2076.637	328
2080.73	335
2084.82	326
2088.906	334
2092.988	321
2097.066	302
2101.14	312
2105.211	310
2109.278	302
2113.342	285
2117.401	294
2121.457	287
2125.509	287
2129.558	284
2133.602	280
2137.643	289
2141.681	289
2145.714	287
2149.744	289
2153.77	291
2157.793	292
2161.812	291
2165.827	290
2169.838	281
2173.846	287
2177.851	289
2181.851	281
2185.848	276
2189.841	275
2193.831	281
2197.817	270
2201.799	273
2205.778	274
2209.753	271
2213.725	272
2217.693	270
2221.657	270
2225.618	262
2229.575	263
2233.529	260
2237.479	277
2241.425	259
2245.368	260
2249.307	259
2253.243	251
2257.175	240
2261.104	240
2265.029	240
2268.95	239
2272.868	242
2276.783	230
2280.694	230
2284.601	228
2288.505	230
2292.405	228
2296.302	227
2300.195	211
2304.085	202
2307.971	217
2311.854	209
2315.734	205
2319.609	206
2323.482	207
2327.351	209
2331.216	205
2335.078	232
2338.937	216
2342.792	209
2346.643	210
2350.492	207
2354.336	213
2358.178	207
2362.015	203
2365.85	203
2369.681	214
2373.508	211
2377.333	214
2381.153	213
2384.971	204
2388.785	205
2392.595	210
2396.402	215
2400.206	217
2404.007	203
2407.804	208
2411.597	205
2415.388	211
2419.174	211
2422.958	207
2426.738	211
2430.515	208
2434.289	194
2438.059	193
2441.825	193
2445.589	192
2449.349	188
2453.106	189
2456.859	190
2460.61	182
2464.356	189
2468.1	186
2471.84	169
2475.577	173
2479.311	166
2483.041	175
2486.768	176
2490.492	175
2494.213	172
2497.93	174
2501.644	174
2505.355	167
2509.062	158
2512.766	163
2516.467	151
2520.165	160
2523.859	157
2527.551	148
2531.239	144
2534.923	138
2538.605	137
2542.283	141
2545.958	148
2549.63	138
2553.299	133
2556.964	127
2560.626	138
2564.285	131
2567.941	121
2571.594	126
2575.243	131
2578.89	121
2582.533	123
2586.173	121
2589.809	116
2593.443	119
2597.073	120
2600.701	116
2604.325	98
2607.946	97
2611.564	110
2615.178	119
2618.79	106
2622.398	116
2626.004	111
2629.606	109
2633.205	101
2636.801	103
2640.394	110
2643.983	112
2647.57	99
2651.153	98
2654.734	105
2658.311	110
2661.885	107
2665.456	98
2669.025	102
2672.589	94
2676.151	91
2679.71	97
2683.266	93
2686.819	89
2690.368	91
2693.915	88
2697.458	89
2700.999	92
2704.536	95
2708.071	93
2711.602	83
2715.13	70
2718.656	77
2722.178	76
2725.697	77
2729.214	77
2732.727	82
2736.237	74
2739.744	69
2743.249	63
2746.75	61
2750.248	59
2753.743	64
2757.236	52
2760.725	52
2764.211	48
2767.695	44
2771.175	42
2774.652	46
2778.127	44
2781.598	51
2785.067	49
2788.532	46
2791.995	54
2795.455	51
2798.911	54
2802.365	58
2805.816	56
2809.264	50
2812.709	57
2816.151	65
2819.59	64
2823.026	58
2826.46	56
2829.89	49
2833.318	51
2836.742	61
2840.164	55
2843.583	54
2846.999	55
2850.412	52
2853.822	57
2857.229	60
2860.634	59
2864.035	60
2867.434	63
2870.83	69
2874.223	69
2877.613	74
2881	73
2884.385	79
2887.766	77
2891.145	73
2894.521	82
2897.894	73
2901.264	76
2904.631	72
2907.996	76
2911.358	84
2914.717	74
2918.073	87
2921.426	90
2924.777	92
2928.124	91
2931.469	99
2934.811	105
2938.15	111
2941.487	110
2944.821	106
2948.152	105
2951.48	102
2954.805	106
2958.128	101
2961.447	95
2964.765	101
2968.079	99
2971.39	96
2974.699	94
2978.005	98
2981.308	88
2984.609	93
2987.907	95
2991.202	94
2994.494	93
2997.784	97
3001.07	93
3004.355	97
3007.636	103
3010.915	107
3014.191	102
3017.464	111
3020.734	114
3024.002	115
3027.267	118
3030.53	115
3033.789	119
3037.046	116
3040.301	124
3043.552	135
3046.801	128
3050.048	131
3053.291	142
3056.532	152
3059.771	150
3063.006	162
3066.239	162
3069.469	174
3072.697	170
3075.922	179
3079.144	187
3082.364	196
3085.581	192
3088.795	204
3092.007	205
3095.216	207
3098.423	216
3101.627	214
3104.828	229
3108.026	227
3111.222	233
3114.416	242
3117.607	236
3120.795	252
3123.98	242
3127.163	267
3130.344	266
3133.521	274
3136.696	272
3139.869	282
3143.039	284
3146.206	295
3149.371	282
3152.533	301
3155.693	294
3158.85	295
3162.005	301
3165.157	301
3168.306	291
3171.453	308
3174.597	311
3177.739	304
3180.878	311
3184.014	303
3187.149	304
3190.28	308
3193.409	305
3196.536	318
3199.659	319
3202.781	316
3205.9	313
3209.016	314
3212.13	314
3215.241	318
3218.35	308
3221.456	305
3224.56	298
3227.661	288
3230.76	295
3233.856	288
3236.95	278
3240.041	284
3243.13	278
3246.216	275
3249.3	259
3252.382	254
3255.46	262
3258.537	253
3261.611	245
3264.682	246
3267.751	251
3270.818	236
3273.882	240
3276.943	242
3280.002	242
3283.059	230
3286.113	224
3289.165	224
3292.214	228
3295.261	232
3298.306	227
3301.348	233
3304.387	227
3307.425	217
3310.459	224
3313.492	215
3316.521	225
3319.549	222
3322.574	215
3325.597	214
3328.617	216
3331.635	220
3334.65	227
3337.663	206
3340.674	222
3343.682	217
3346.688	221
3349.691	224
3352.692	213
3355.691	222
3358.687	206
3361.681	211
3364.673	212
3367.662	206
3370.649	207
3373.633	190
3376.615	206
3379.595	194
3382.572	192
3385.547	200
3388.52	184
3391.49	184
3394.458	169
3397.424	176
3400.387	174
3403.348	171
3406.307	164
3409.263	170
3412.217	167
3415.168	169
3418.118	162
3421.065	161
3424.009	148
3426.951	144
3429.891	148
3432.829	142
3435.764	146
3438.697	136
3441.628	132
3444.557	134
3447.483	122
3450.407	107
3453.328	112
3456.247	108
3459.164	113
3462.079	98
3464.991	96
3467.902	79
3470.809	85
3473.715	80
3476.618	65
3479.519	70
3482.418	70
3485.315	62
3488.209	53
3491.101	52
3493.99	55
3496.878	48
3499.763	38
3502.646	41
3505.527	44
3508.405	40
3511.281	33
3514.155	28
3517.027	26
3519.897	27
3522.764	21
3525.629	12
3528.492	10
3531.352	1
3534.211	-2
3537.067	5
3539.921	-5
3542.773	-7
3545.622	-6
3548.469	-9
3551.315	-7
3554.157	-17
3556.998	-14
3559.837	-16
3562.673	-13
3565.507	-20
3568.339	-13
3571.169	-21
3573.996	-17
3576.822	-29
3579.645	-28
3582.466	-22
3585.285	-28
3588.101	-35
3590.916	-25
3593.728	-44
3596.538	-40
3599.346	-39
3602.152	-36
3604.956	-36
3607.757	-32
3610.556	-38
3613.354	-50
3616.149	-44
3618.942	-39
3621.732	-48
3624.521	-45
3627.307	-47
3630.092	-48
3632.874	-50
3635.654	-48
3638.432	-46
3641.208	-46
3643.982	-50
3646.753	-52
3649.523	-50
3652.29	-54
3655.055	-54
3657.818	-57
3660.579	-59
3663.338	-54
3666.095	-54
3668.849	-55
3671.602	-61
3674.352	-58
3677.101	-57
3679.847	-59
3682.591	-56
3685.333	-56
3688.073	-64
3690.811	-60
3693.547	-56
3696.281	-61
3699.013	-60
3701.742	-64
3704.47	-59
3707.195	-62
3709.919	-67
3712.64	-71
3715.359	-67
3718.076	-69
3720.792	-63
3723.505	-68
3726.216	-59
3728.925	-63
3731.632	-64
3734.336	-67
3737.039	-65
3739.74	-70
3742.439	-70
3745.136	-67
3747.83	-67
3750.523	-71
3753.213	-84
3755.902	-66
3758.589	-70
3761.273	-68
3763.956	-70
3766.636	-65
3769.315	-61
3771.991	-70
3774.665	-70
3777.338	-74
3780.008	-71
3782.677	-74
3785.343	-69
3788.007	-72
3790.67	-67
3793.33	-67
3795.989	-68
3798.645	-72
3801.299	-64
3803.952	-69
3806.602	-72
3809.251	-72
3811.897	-77
3814.542	-75
3817.184	-71
3819.825	-67
3822.463	-74
3825.1	-65
3827.735	-79
3830.367	-78
3832.998	-77
3835.627	-76
3838.253	-69
3840.878	-68
3843.501	-63
3846.122	-73
3848.741	-69
3851.358	-69
3853.973	-68
3856.586	-70
3859.197	-70
3861.806	-71
3864.414	-73
3867.019	-76
3869.622	-65
3872.224	-60
3874.823	-54
3877.421	-45
3880.016	-26
3882.61	-11
3885.202	-14
3887.792	-22
3890.38	-44
3892.966	-58
3895.55	-68
3898.132	-68
3900.713	-70
3903.291	-76
3905.868	-67
3908.442	-71
3911.015	-72
3913.586	-76
3916.155	-74
3918.722	-75
3921.287	-79
3923.85	-69
3926.411	-77
3928.971	-81
3931.528	-71
3934.084	-73
3936.638	-68
3939.19	-79
3941.74	-71
3944.288	-71
3946.834	-77
3949.378	-73
3951.921	-76
3954.462	-72
3957	-68
3959.537	-63
3962.072	-69
3964.606	-67
3967.137	-72
3969.667	-80
3972.194	-69
3974.72	-68
3977.244	-70
3979.766	-77
3982.286	-76
3984.805	-82
3987.321	-73
3989.836	-70
3992.349	-69
3994.86	-74
3997.369	-76
3999.877	-71
4002.382	-71
4004.886	-69
4007.388	-74
4009.888	-71
4012.386	-75
4014.883	-67
4017.377	-64
4019.87	-70
4022.361	-74
4024.85	-73
4027.338	-75
4029.823	-76
4032.307	-74
4034.789	-70
4037.269	-73
4039.747	-75
4042.224	-73
4044.699	-74
4047.172	-74
4049.643	-72
4052.112	-74
4054.58	-69
4057.046	-71
4059.51	-78
4061.972	-76
4064.432	-68
4066.891	-69
4069.348	-66
4071.803	-68
4074.256	-72
4076.708	-74
4079.158	-79
4081.606	-70
4084.052	-72
4086.497	-68
4088.939	-73
4091.38	-77
4093.819	-78
4096.257	-79
4098.693	-78
4101.127	-73
4103.559	-79
4105.989	-1
4108.418	-7
4110.845	-8
4113.27	-6
4115.694	5
4118.115	6
4120.535	-76
4122.954	-70
4125.37	-74
4127.785	-72
4130.198	-71
4132.609	-71
4135.019	-76
4137.427	-76
4139.833	-76
4142.237	-75
