Data from 2018-3-7_conc=6_n=1_RamanShift_05.txt Node
Date: Wed Mar 07 12:58:52 IST 2018
User: aro
Spectrometer: QEPB0276
Trigger mode: 0
Integration Time (sec): 3.000000E1
Scans to average: 1
Electric dark correction enabled: true
Nonlinearity correction enabled: false
Boxcar width: 0
XAxis mode: Raman Shifts
Number of Pixels in Spectrum: 1044
>>>>>Begin Spectral Data<<<<<
160.701	4.1
166.742	15.1
172.777	45.1
178.805	173.1
184.826	451.1
190.841	986.1
196.849	1668.1
202.85	2183.1
208.845	2371.1
214.833	2374.1
220.815	2342.1
226.789	2333.1
232.758	2363.1
238.719	2336.1
244.674	2320.1
250.623	2289.1
256.565	2265.1
262.5	2218.1
268.429	2188.1
274.351	2180.1
280.267	2157.1
286.176	2160.1
292.079	2147.1
297.975	2129.1
303.865	2137.1
309.748	2113.1
315.625	2118.1
321.495	2108.1
327.359	2113.1
333.217	2103.1
339.068	2130.1
344.912	2120.1
350.751	2111.1
356.583	2136.1
362.408	2108.1
368.227	2127.1
374.04	2131.1
379.847	2117.1
385.647	2119.1
391.44	2151.1
397.228	2150.1
403.009	2168.1
408.784	2162.1
414.553	2195.1
420.315	2181.1
426.071	2187.1
431.821	2181.1
437.565	2175.1
443.302	2182.1
449.033	2168.1
454.758	2195.1
460.477	2151.1
466.189	2140.1
471.896	2125.1
477.596	2113.1
483.29	2112.1
488.978	2108.1
494.66	2081.1
500.335	2072.1
506.005	2023.1
511.668	1979.1
517.325	1924.1
522.977	1874.1
528.622	1844.1
534.261	1818.1
539.894	1783.1
545.521	1769.1
551.141	1782.1
556.756	1771.1
562.365	1753.1
567.968	1739.1
573.565	1737.1
579.155	1719.1
584.74	1709.1
590.319	1701.1
595.892	1714.1
601.459	1692.1
607.02	1692.1
612.575	1661.1
618.124	1678.1
623.667	1650.1
629.204	1626.1
634.735	1637.1
640.261	1614.1
645.781	1609.1
651.294	1594.1
656.802	1584.1
662.304	1578.1
667.8	1598.1
673.29	1571.1
678.775	1592.1
684.254	1601.1
689.726	1570.1
695.193	1560.1
700.655	1573.1
706.11	1542.1
711.56	1541.1
717.004	1536.1
722.442	1522.1
727.874	1523.1
733.301	1517.1
738.722	1507.1
744.137	1501.1
749.547	1487.1
754.951	1490.1
760.349	1516.1
765.741	1492.1
771.128	1505.1
776.509	1519.1
781.885	1536.1
787.254	1527.1
792.618	1521.1
797.977	1510.1
803.33	1494.1
808.677	1492.1
814.019	1478.1
819.355	1486.1
824.686	1453.1
830.011	1454.1
835.33	1448.1
840.644	1452.1
845.952	1431.1
851.255	1444.1
856.552	1460.1
861.844	1444.1
867.13	1417.1
872.41	1430.1
877.686	1405.1
882.955	1421.1
888.219	1379.1
893.478	1377.1
898.731	1354.1
903.979	1325.1
909.221	1335.1
914.458	1316.1
919.69	1321.1
924.916	1319.1
930.136	1339.1
935.351	1340.1
940.561	1319.1
945.766	1346.1
950.965	1330.1
956.158	1310.1
961.347	1302.1
966.529	1284.1
971.707	1262.1
976.879	1257.1
982.046	1255.1
987.208	1232.1
992.364	1228.1
997.515	1246.1
1002.66	1244.1
1007.801	1262.1
1012.936	1276.1
1018.066	1269.1
1023.19	1283.1
1028.309	1268.1
1033.423	1274.1
1038.532	1256.1
1043.636	1250.1
1048.734	1231.1
1053.827	1220.1
1058.915	1220.1
1063.998	1200.1
1069.075	1189.1
1074.147	1189.1
1079.214	1196.1
1084.276	1213.1
1089.333	1212.1
1094.385	1217.1
1099.431	1212.1
1104.472	1210.1
1109.509	1214.1
1114.54	1179.1
1119.565	1180.1
1124.586	1167.1
1129.602	1152.1
1134.613	1141.1
1139.618	1144.1
1144.619	1129.1
1149.614	1135.1
1154.604	1118.1
1159.589	1135.1
1164.57	1136.1
1169.545	1148.1
1174.515	1141.1
1179.48	1129.1
1184.44	1123.1
1189.395	1111.1
1194.345	1100.1
1199.29	1090.1
1204.23	1102.1
1209.165	1110.1
1214.095	1108.1
1219.021	1119.1
1223.941	1116.1
1228.856	1130.1
1233.766	1146.1
1238.672	1137.1
1243.572	1123.1
1248.467	1121.1
1253.358	1116.1
1258.244	1095.1
1263.124	1076.1
1268	1063.1
1272.871	1050.1
1277.737	1046.1
1282.599	1033.1
1287.455	1045.1
1292.306	1039.1
1297.153	1045.1
1301.995	1050.1
1306.832	1065.1
1311.664	1056.1
1316.491	1052.1
1321.314	1058.1
1326.132	1039.1
1330.945	1025.1
1335.753	1009.1
1340.556	992.1
1345.354	970.1
1350.148	947.1
1354.937	933.1
1359.722	895.1
1364.501	883.1
1369.276	860.1
1374.046	836.1
1378.811	822.1
1383.572	833.1
1388.327	829.1
1393.079	831.1
1397.825	844.1
1402.567	857.1
1407.304	865.1
1412.036	863.1
1416.764	867.1
1421.487	877.1
1426.205	879.1
1430.919	865.1
1435.628	867.1
1440.333	888.1
1445.032	876.1
1449.727	893.1
1454.418	887.1
1459.104	876.1
1463.785	870.1
1468.462	855.1
1473.134	840.1
1477.802	814.1
1482.465	790.1
1487.123	774.1
1491.777	745.1
1496.426	746.1
1501.071	727.1
1505.711	721.1
1510.347	709.1
1514.978	704.1
1519.604	693.1
1524.226	690.1
1528.844	692.1
1533.457	686.1
1538.065	687.1
1542.669	691.1
1547.269	694.1
1551.864	697.1
1556.454	712.1
1561.041	728.1
1565.622	734.1
1570.199	733.1
1574.772	741.1
1579.34	758.1
1583.904	773.1
1588.464	782.1
1593.019	791.1
1597.569	776.1
1602.115	785.1
1606.657	778.1
1611.195	769.1
1615.728	776.1
1620.256	759.1
1624.78	760.1
1629.3	766.1
1633.816	784.1
1638.327	779.1
1642.834	769.1
1647.336	748.1
1651.834	762.1
1656.328	757.1
1660.817	746.1
1665.302	749.1
1669.783	707.1
1674.259	717.1
1678.732	684.1
1683.199	658.1
1687.663	635.1
1692.122	600.1
1696.577	561.1
1701.028	530.1
1705.474	498.1
1709.917	492.1
1714.355	491.1
1718.788	479.1
1723.218	490.1
1727.643	489.1
1732.064	495.1
1736.481	481.1
1740.893	481.1
1745.301	479.1
1749.705	472.1
1754.105	456.1
1758.501	435.1
1762.893	446.1
1767.28	421.1
1771.663	427.1
1776.042	412.1
1780.417	406.1
1784.787	395.1
1789.154	388.1
1793.516	365.1
1797.874	364.1
1802.228	356.1
1806.578	339.1
1810.924	343.1
1815.266	353.1
1819.603	356.1
1823.937	367.1
1828.266	367.1
1832.591	373.1
1836.913	372.1
1841.23	381.1
1845.543	372.1
1849.852	376.1
1854.156	381.1
1858.457	383.1
1862.754	387.1
1867.047	375.1
1871.335	374.1
1875.62	372.1
1879.9	371.1
1884.177	361.1
1888.449	363.1
1892.718	345.1
1896.982	343.1
1901.243	337.1
1905.499	333.1
1909.752	328.1
1914	309.1
1918.245	303.1
1922.485	299.1
1926.722	294.1
1930.954	282.1
1935.183	276.1
1939.408	278.1
1943.628	276.1
1947.845	273.1
1952.058	270.1
1956.267	263.1
1960.472	269.1
1964.673	260.1
1968.87	264.1
1973.063	269.1
1977.252	270.1
1981.438	280.1
1985.619	275.1
1989.797	277.1
1993.971	286.1
1998.14	285.1
2002.306	288.1
2006.469	304.1
2010.627	285.1
2014.781	285.1
2018.932	288.1
2023.078	286.1
2027.221	292.1
2031.36	294.1
2035.495	277.1
2039.627	269.1
2043.754	265.1
2047.878	261.1
2051.998	264.1
2056.114	264.1
2060.226	252.1
2064.334	251.1
2068.439	246.1
2072.54	250.1
2076.637	249.1
2080.73	255.1
2084.82	246.1
2088.906	233.1
2092.988	234.1
2097.066	235.1
2101.14	238.1
2105.211	222.1
2109.278	221.1
2113.342	218.1
2117.401	217.1
2121.457	214.1
2125.509	220.1
2129.558	214.1
2133.602	205.1
2137.643	216.1
2141.681	214.1
2145.714	216.1
2149.744	218.1
2153.77	234.1
2157.793	224.1
2161.812	236.1
2165.827	227.1
2169.838	222.1
2173.846	223.1
2177.851	215.1
2181.851	216.1
2185.848	211.1
2189.841	209.1
2193.831	204.1
2197.817	213.1
2201.799	211.1
2205.778	212.1
2209.753	207.1
2213.725	206.1
2217.693	216.1
2221.657	207.1
2225.618	203.1
2229.575	205.1
2233.529	211.1
2237.479	210.1
2241.425	214.1
2245.368	210.1
2249.307	200.1
2253.243	200.1
2257.175	195.1
2261.104	183.1
2265.029	188.1
2268.95	192.1
2272.868	185.1
2276.783	187.1
2280.694	174.1
2284.601	179.1
2288.505	186.1
2292.405	168.1
2296.302	176.1
2300.195	171.1
2304.085	171.1
2307.971	165.1
2311.854	166.1
2315.734	159.1
2319.609	170.1
2323.482	168.1
2327.351	171.1
2331.216	174.1
2335.078	185.1
2338.937	175.1
2342.792	177.1
2346.643	167.1
2350.492	177.1
2354.336	172.1
2358.178	166.1
2362.015	180.1
2365.85	169.1
2369.681	175.1
2373.508	175.1
2377.333	182.1
2381.153	168.1
2384.971	165.1
2388.785	166.1
2392.595	172.1
2396.402	173.1
2400.206	176.1
2404.007	175.1
2407.804	171.1
2411.597	169.1
2415.388	167.1
2419.174	171.1
2422.958	172.1
2426.738	172.1
2430.515	160.1
2434.289	173.1
2438.059	160.1
2441.825	161.1
2445.589	160.1
2449.349	161.1
2453.106	153.1
2456.859	153.1
2460.61	151.1
2464.356	152.1
2468.1	145.1
2471.84	142.1
2475.577	141.1
2479.311	134.1
2483.041	145.1
2486.768	143.1
2490.492	148.1
2494.213	146.1
2497.93	137.1
2501.644	146.1
2505.355	135.1
2509.062	135.1
2512.766	127.1
2516.467	128.1
2520.165	128.1
2523.859	129.1
2527.551	122.1
2531.239	116.1
2534.923	112.1
2538.605	115.1
2542.283	107.1
2545.958	111.1
2549.63	115.1
2553.299	106.1
2556.964	105.1
2560.626	104.1
2564.285	105.1
2567.941	103.1
2571.594	98.1
2575.243	104.1
2578.89	100.1
2582.533	95.1
2586.173	99.1
2589.809	98.1
2593.443	103.1
2597.073	100.1
2600.701	92.1
2604.325	92.1
2607.946	80.1
2611.564	94.1
2615.178	96.1
2618.79	83.1
2622.398	89.1
2626.004	94.1
2629.606	84.1
2633.205	84.1
2636.801	85.1
2640.394	98.1
2643.983	84.1
2647.57	86.1
2651.153	79.1
2654.734	80.1
2658.311	84.1
2661.885	88.1
2665.456	88.1
2669.025	86.1
2672.589	77.1
2676.151	82.1
2679.71	78.1
2683.266	77.1
2686.819	81.1
2690.368	75.1
2693.915	79.1
2697.458	76.1
2700.999	72.1
2704.536	69.1
2708.071	76.1
2711.602	62.1
2715.13	59.1
2718.656	57.1
2722.178	60.1
2725.697	58.1
2729.214	56.1
2732.727	67.1
2736.237	63.1
2739.744	53.1
2743.249	49.1
2746.75	52.1
2750.248	51.1
2753.743	47.1
2757.236	44.1
2760.725	42.1
2764.211	42.1
2767.695	35.1
2771.175	39.1
2774.652	37.1
2778.127	41.1
2781.598	36.1
2785.067	38.1
2788.532	38.1
2791.995	41.1
2795.455	41.1
2798.911	38.1
2802.365	45.1
2805.816	43.1
2809.264	37.1
2812.709	38.1
2816.151	43.1
2819.59	57.1
2823.026	50.1
2826.46	46.1
2829.89	53.1
2833.318	46.1
2836.742	53.1
2840.164	41.1
2843.583	46.1
2846.999	52.1
2850.412	47.1
2853.822	44.1
2857.229	49.1
2860.634	41.1
2864.035	48.1
2867.434	43.1
2870.83	55.1
2874.223	54.1
2877.613	56.1
2881	60.1
2884.385	55.1
2887.766	58.1
2891.145	55.1
2894.521	66.1
2897.894	55.1
2901.264	62.1
2904.631	56.1
2907.996	60.1
2911.358	70.1
2914.717	65.1
2918.073	65.1
2921.426	69.1
2924.777	72.1
2928.124	68.1
2931.469	76.1
2934.811	77.1
2938.15	80.1
2941.487	83.1
2944.821	78.1
2948.152	85.1
2951.48	68.1
2954.805	77.1
2958.128	75.1
2961.447	78.1
2964.765	67.1
2968.079	71.1
2971.39	72.1
2974.699	74.1
2978.005	79.1
2981.308	70.1
2984.609	70.1
2987.907	73.1
2991.202	69.1
2994.494	65.1
2997.784	70.1
3001.07	73.1
3004.355	72.1
3007.636	75.1
3010.915	78.1
3014.191	75.1
3017.464	79.1
3020.734	79.1
3024.002	86.1
3027.267	76.1
3030.53	86.1
3033.789	90.1
3037.046	90.1
3040.301	86.1
3043.552	94.1
3046.801	105.1
3050.048	98.1
3053.291	106.1
3056.532	112.1
3059.771	119.1
3063.006	126.1
3066.239	127.1
3069.469	138.1
3072.697	131.1
3075.922	138.1
3079.144	134.1
3082.364	139.1
3085.581	137.1
3088.795	149.1
3092.007	147.1
3095.216	151.1
3098.423	153.1
3101.627	155.1
3104.828	158.1
3108.026	172.1
3111.222	164.1
3114.416	170.1
3117.607	171.1
3120.795	172.1
3123.98	173.1
3127.163	194.1
3130.344	181.1
3133.521	193.1
3136.696	199.1
3139.869	200.1
3143.039	208.1
3146.206	207.1
3149.371	207.1
3152.533	217.1
3155.693	221.1
3158.85	212.1
3162.005	216.1
3165.157	215.1
3168.306	221.1
3171.453	208.1
3174.597	213.1
3177.739	231.1
3180.878	227.1
3184.014	226.1
3187.149	220.1
3190.28	226.1
3193.409	230.1
3196.536	227.1
3199.659	232.1
3202.781	227.1
3205.9	232.1
3209.016	232.1
3212.13	232.1
3215.241	233.1
3218.35	222.1
3221.456	225.1
3224.56	209.1
3227.661	215.1
3230.76	202.1
3233.856	210.1
3236.95	197.1
3240.041	184.1
3243.13	196.1
3246.216	189.1
3249.3	185.1
3252.382	190.1
3255.46	183.1
3258.537	181.1
3261.611	175.1
3264.682	174.1
3267.751	177.1
3270.818	169.1
3273.882	168.1
3276.943	175.1
3280.002	167.1
3283.059	175.1
3286.113	160.1
3289.165	169.1
3292.214	173.1
3295.261	165.1
3298.306	165.1
3301.348	167.1
3304.387	163.1
3307.425	154.1
3310.459	150.1
3313.492	161.1
3316.521	153.1
3319.549	169.1
3322.574	155.1
3325.597	158.1
3328.617	155.1
3331.635	164.1
3334.65	161.1
3337.663	150.1
3340.674	163.1
3343.682	154.1
3346.688	151.1
3349.691	161.1
3352.692	163.1
3355.691	168.1
3358.687	156.1
3361.681	149.1
3364.673	154.1
3367.662	152.1
3370.649	150.1
3373.633	145.1
3376.615	137.1
3379.595	133.1
3382.572	133.1
3385.547	138.1
3388.52	130.1
3391.49	127.1
3394.458	124.1
3397.424	129.1
3400.387	127.1
3403.348	119.1
3406.307	121.1
3409.263	121.1
3412.217	112.1
3415.168	119.1
3418.118	112.1
3421.065	105.1
3424.009	106.1
3426.951	101.1
3429.891	103.1
3432.829	97.1
3435.764	105.1
3438.697	97.1
3441.628	79.1
3444.557	87.1
3447.483	84.1
3450.407	81.1
3453.328	79.1
3456.247	72.1
3459.164	72.1
3462.079	64.1
3464.991	63.1
3467.902	59.1
3470.809	49.1
3473.715	54.1
3476.618	46.1
3479.519	47.1
3482.418	35.1
3485.315	42.1
3488.209	25.1
3491.101	28.1
3493.99	34.1
3496.878	27.1
3499.763	17.1
3502.646	22.1
3505.527	21.1
3508.405	19.1
3511.281	19.1
3514.155	8.1
3517.027	8.1
3519.897	18.1
3522.764	13.1
3525.629	6.1
3528.492	4.1
3531.352	1.1
3534.211	-4.9
3537.067	0.1
3539.921	0.1
3542.773	-11.9
3545.622	-11.9
3548.469	-12.9
3551.315	-9.9
3554.157	-15.9
3556.998	-19.9
3559.837	-21.9
3562.673	-15.9
3565.507	-22.9
3568.339	-16.9
3571.169	-18.9
3573.996	-17.9
3576.822	-29.9
3579.645	-20.9
3582.466	-21.9
3585.285	-24.9
3588.101	-24.9
3590.916	-21.9
3593.728	-33.9
3596.538	-32.9
3599.346	-31.9
3602.152	-34.9
3604.956	-28.9
3607.757	-29.9
3610.556	-31.9
3613.354	-41.9
3616.149	-39.9
3618.942	-35.9
3621.732	-35.9
3624.521	-34.9
3627.307	-39.9
3630.092	-41.9
3632.874	-42.9
3635.654	-41.9
3638.432	-33.9
3641.208	-37.9
3643.982	-34.9
3646.753	-38.9
3649.523	-40.9
3652.29	-41.9
3655.055	-36.9
3657.818	-44.9
3660.579	-48.9
3663.338	-39.9
3666.095	-50.9
3668.849	-49.9
3671.602	-44.9
3674.352	-40.9
3677.101	-48.9
3679.847	-42.9
3682.591	-46.9
3685.333	-40.9
3688.073	-49.9
3690.811	-48.9
3693.547	-49.9
3696.281	-49.9
3699.013	-45.9
3701.742	-50.9
3704.47	-44.9
3707.195	-46.9
3709.919	-45.9
3712.64	-50.9
3715.359	-48.9
3718.076	-57.9
3720.792	-49.9
3723.505	-53.9
3726.216	-49.9
3728.925	-56.9
3731.632	-52.9
3734.336	-54.9
3737.039	-48.9
3739.74	-55.9
3742.439	-58.9
3745.136	-52.9
3747.83	-50.9
3750.523	-51.9
3753.213	-60.9
3755.902	-54.9
3758.589	-47.9
3761.273	-45.9
3763.956	-53.9
3766.636	-53.9
3769.315	-50.9
3771.991	-55.9
3774.665	-59.9
3777.338	-54.9
3780.008	-56.9
3782.677	-57.9
3785.343	-52.9
3788.007	-57.9
3790.67	-60.9
3793.33	-54.9
3795.989	-57.9
3798.645	-59.9
3801.299	-51.9
3803.952	-56.9
3806.602	-54.9
3809.251	-57.9
3811.897	-56.9
3814.542	-61.9
3817.184	-56.9
3819.825	-48.9
3822.463	-53.9
3825.1	-50.9
3827.735	-59.9
3830.367	-59.9
3832.998	-56.9
3835.627	-59.9
3838.253	-54.9
3840.878	-55.9
3843.501	-55.9
3846.122	-62.9
3848.741	-56.9
3851.358	-55.9
3853.973	-56.9
3856.586	-56.9
3859.197	-52.9
3861.806	-58.9
3864.414	-54.9
3867.019	-53.9
3869.622	-52.9
3872.224	-43.9
3874.823	-38.9
3877.421	-35.9
3880.016	-35.9
3882.61	-9.9
3885.202	-12.9
3887.792	-13.9
3890.38	-33.9
3892.966	-44.9
3895.55	-52.9
3898.132	-55.9
3900.713	-55.9
3903.291	-54.9
3905.868	-51.9
3908.442	-59.9
3911.015	-60.9
3913.586	-65.9
3916.155	-58.9
3918.722	-61.9
3921.287	-57.9
3923.85	-55.9
3926.411	-61.9
3928.971	-66.9
3931.528	-54.9
3934.084	-53.9
3936.638	-54.9
3939.19	-61.9
3941.74	-55.9
3944.288	-57.9
3946.834	-55.9
3949.378	-61.9
3951.921	-59.9
3954.462	-61.9
3957	-50.9
3959.537	-50.9
3962.072	-51.9
3964.606	-58.9
3967.137	-54.9
3969.667	-60.9
3972.194	-54.9
3974.72	-52.9
3977.244	-56.9
3979.766	-60.9
3982.286	-59.9
3984.805	-63.9
3987.321	-53.9
3989.836	-54.9
3992.349	-52.9
3994.86	-59.9
3997.369	-59.9
3999.877	-52.9
4002.382	-53.9
4004.886	-52.9
4007.388	-58.9
4009.888	-54.9
4012.386	-58.9
4014.883	-60.9
4017.377	-51.9
4019.87	-61.9
4022.361	-61.9
4024.85	-56.9
4027.338	-62.9
4029.823	-53.9
4032.307	-56.9
4034.789	-53.9
4037.269	-55.9
4039.747	-55.9
4042.224	-58.9
4044.699	-59.9
4047.172	-60.9
4049.643	-56.9
4052.112	-60.9
4054.58	-53.9
4057.046	-51.9
4059.51	-59.9
4061.972	-62.9
4064.432	-55.9
4066.891	-50.9
4069.348	-52.9
4071.803	-52.9
4074.256	-53.9
4076.708	-60.9
4079.158	-65.9
4081.606	-59.9
4084.052	-62.9
4086.497	-54.9
4088.939	-61.9
4091.38	-62.9
4093.819	-60.9
4096.257	-58.9
4098.693	-59.9
4101.127	-54.9
4103.559	-61.9
4105.989	3.1
4108.418	-4.9
4110.845	-9.9
4113.27	-7.9
4115.694	1.1
4118.115	0.1
4120.535	-55.9
4122.954	-53.9
4125.37	-55.9
4127.785	-56.9
4130.198	-48.9
4132.609	-57.9
4135.019	-58.9
4137.427	-61.9
4139.833	-55.9
4142.237	-60.9
